* Measurement data measured by REW V5.20.13
* Source: Headset (USB-C to 3.5mm Headphone Jack Adapter), MICROPHONE (Master Volume), L, volume: 0.260. Timing signal peak level -16.2 dBFS, measurement signal peak level -16.0 dBFS
* Format: 512k Log Swept Sine, 1 sweep at -12.0 dBFS using an acoustic timing reference
* Dated: 02 10, 24 1:15:29 AM
* REW Settings:
*  C-weighting compensation: Off
*  Target level: 75.0 dB
* Note: Delay -0.0795 ms (-27 mm, -1.07 in) using estimated IR delay relative to Acoustic reference played from  L with no timing offset Clock adjustment: 1.4 ppm
* Measurement: 7hz Timeless CP100 (L)
* Smoothing: 1/24 octave
* Frequency Step: 1/48 octave
* Start Frequency: 20.000 Hz
*
* Freq(Hz)	SPL(dB)	Phase(degrees)
20.000000	94.407	-98.0177
20.299999	94.498	-99.1548
20.600000	94.586	-100.2614
20.900000	94.672	-101.3345
21.200001	94.757	-102.3775
21.400000	94.813	-103.0627
21.799999	94.926	-104.4242
22.000000	94.982	-105.1073
22.400000	95.087	-106.4844
22.700001	95.160	-107.5184
23.000000	95.225	-108.5361
23.299999	95.283	-109.5195
23.600000	95.337	-110.4583
24.000000	95.406	-111.6383
24.299999	95.459	-112.4813
24.700001	95.532	-113.5750
25.000000	95.589	-114.3897
25.400000	95.664	-115.4795
25.799999	95.736	-116.5704
26.200001	95.803	-117.6517
26.500000	95.850	-118.4514
26.900000	95.910	-119.5008
27.200001	95.952	-120.2755
27.600000	96.005	-121.2917
28.000000	96.055	-122.2857
28.500000	96.113	-123.4927
29.000000	96.169	-124.6637
29.500000	96.224	-125.8108
30.000000	96.276	-126.9437
30.400000	96.315	-127.8388
30.700001	96.343	-128.5007
31.100000	96.378	-129.3670
31.500000	96.411	-130.2133
32.000000	96.451	-131.2453
32.500000	96.490	-132.2527
33.000000	96.527	-133.2381
33.500000	96.562	-134.2013
34.000000	96.594	-135.1436
34.500000	96.625	-136.0689
35.000000	96.653	-136.9793
35.500000	96.677	-137.8711
36.000000	96.699	-138.7373
36.500000	96.719	-139.5763
37.000000	96.739	-140.3954
37.500000	96.758	-141.2042
38.200001	96.783	-142.3237
38.700001	96.800	-143.1096
39.500000	96.823	-144.3480
40.000000	96.835	-145.1151
40.599998	96.846	-146.0166
41.200001	96.854	-146.8751
41.799999	96.862	-147.6905
42.500000	96.876	-148.6204
43.099998	96.887	-149.4189
43.700001	96.895	-150.2089
44.400002	96.901	-151.1015
45.000000	96.906	-151.8432
45.500000	96.910	-152.4541
46.200001	96.913	-153.3047
46.799999	96.912	-154.0212
47.500000	96.907	-154.8222
48.200001	96.902	-155.5831
48.700001	96.900	-156.1146
49.400002	96.897	-156.8582
50.000000	96.893	-157.4908
50.799999	96.885	-158.3120
51.500000	96.878	-159.0138
52.200001	96.869	-159.7069
53.000000	96.856	-160.4770
53.799999	96.843	-161.2208
54.500000	96.832	-161.8615
55.200001	96.819	-162.4928
56.000000	96.804	-163.2023
57.000000	96.782	-164.0768
58.000000	96.755	-164.8951
59.000000	96.734	-165.6664
60.000000	96.715	-166.4534
60.799999	96.696	-167.0728
61.500000	96.678	-167.5921
62.200001	96.660	-168.0961
63.000000	96.639	-168.6615
64.000000	96.614	-169.3570
65.000000	96.586	-170.0380
66.000000	96.557	-170.6982
67.000000	96.528	-171.3423
68.000000	96.499	-171.9767
69.000000	96.469	-172.6041
70.000000	96.435	-173.2109
71.000000	96.402	-173.7816
72.000000	96.370	-174.3334
73.000000	96.338	-174.8772
74.000000	96.304	-175.4068
75.000000	96.271	-175.9245
76.199997	96.229	-176.5306
77.500000	96.183	-177.1668
78.800003	96.136	-177.7806
80.000000	96.093	-178.3296
81.199997	96.050	-178.8604
82.500000	96.003	-179.4121
83.800003	95.956	-179.9503
85.000000	95.911	179.5687
86.199997	95.866	179.1075
87.500000	95.817	178.6235
88.500000	95.779	178.2635
90.000000	95.724	177.7440
91.199997	95.679	177.3441
92.500000	95.632	176.9259
93.800003	95.584	176.5195
95.000000	95.541	176.1540
96.199997	95.497	175.7981
97.500000	95.450	175.4205
98.800003	95.403	175.0508
100.000000	95.360	174.7178
101.500000	95.305	174.3143
103.000000	95.251	173.9276
104.400002	95.199	173.5825
106.000000	95.141	173.2055
107.500000	95.086	172.8637
109.000000	95.031	172.5352
110.599998	94.972	172.1957
112.000000	94.921	171.9064
113.800003	94.854	171.5511
115.000000	94.809	171.3297
117.199997	94.729	170.9425
118.000000	94.701	170.8066
120.599998	94.609	170.3857
122.000000	94.560	170.1758
124.099998	94.487	169.8843
125.000000	94.457	169.7662
126.500000	94.408	169.5744
128.000000	94.361	169.3863
131.500000	94.255	168.9639
132.000000	94.240	168.9064
134.000000	94.180	168.6860
136.000000	94.121	168.4794
138.000000	94.060	168.2855
140.000000	94.001	168.1024
143.000000	93.912	167.8328
145.000000	93.853	167.6670
147.500000	93.779	167.4857
150.000000	93.706	167.3249
152.500000	93.633	167.1836
155.000000	93.562	167.0569
157.500000	93.491	166.9393
160.000000	93.415	166.8394
162.500000	93.333	166.7555
165.000000	93.248	166.6801
167.500000	93.164	166.6156
170.000000	93.081	166.5634
172.500000	92.998	166.5263
175.000000	92.917	166.5030
177.500000	92.838	166.4868
180.000000	92.759	166.4813
182.500000	92.681	166.4904
185.000000	92.604	166.5104
187.500000	92.527	166.5388
190.000000	92.453	166.5692
192.500000	92.380	166.6004
195.000000	92.309	166.6405
197.500000	92.239	166.6904
200.000000	92.173	166.7479
203.000000	92.099	166.8254
206.000000	92.032	166.9126
209.000000	91.969	167.0151
212.000000	91.908	167.1222
214.000000	91.868	167.1933
218.000000	91.787	167.3470
220.000000	91.747	167.4319
224.000000	91.668	167.6125
227.000000	91.611	167.7626
230.000000	91.556	167.9261
233.000000	91.501	168.0940
236.000000	91.446	168.2670
240.000000	91.375	168.5074
243.000000	91.322	168.6901
247.000000	91.254	168.9421
250.000000	91.203	169.1389
254.000000	91.133	169.4048
258.000000	91.066	169.6825
262.000000	91.002	169.9759
265.000000	90.955	170.1965
269.000000	90.893	170.4816
272.000000	90.847	170.6936
276.000000	90.785	170.9802
280.000000	90.724	171.2679
285.000000	90.650	171.6342
290.000000	90.578	172.0134
295.000000	90.507	172.4015
300.000000	90.438	172.8044
304.000000	90.383	173.1260
307.000000	90.343	173.3647
311.000000	90.291	173.6890
315.000000	90.240	174.0218
320.000000	90.178	174.4444
325.000000	90.119	174.8733
330.000000	90.062	175.3139
335.000000	90.006	175.7596
340.000000	89.952	176.2069
345.000000	89.900	176.6594
350.000000	89.849	177.1105
355.000000	89.800	177.5691
360.000000	89.751	178.0348
365.000000	89.704	178.4993
370.000000	89.659	178.9655
375.000000	89.615	179.4391
382.000000	89.556	-179.8896
387.000000	89.515	-179.4097
395.000000	89.452	-178.6413
400.000000	89.415	-178.1646
406.000000	89.372	-177.5892
412.000000	89.331	-177.0044
418.000000	89.291	-176.4140
425.000000	89.247	-175.7259
431.000000	89.211	-175.1371
437.000000	89.177	-174.5499
444.000000	89.139	-173.8613
450.000000	89.107	-173.2661
455.000000	89.082	-172.7724
462.000000	89.047	-172.0876
468.000000	89.019	-171.4966
475.000000	88.988	-170.8050
482.000000	88.958	-170.1127
487.000000	88.937	-169.6176
494.000000	88.908	-168.9187
500.000000	88.886	-168.3150
508.000000	88.858	-167.5164
515.000000	88.836	-166.8211
522.000000	88.816	-166.1231
530.000000	88.793	-165.3222
538.000000	88.773	-164.5266
545.000000	88.756	-163.8300
552.000000	88.741	-163.1292
560.000000	88.725	-162.3277
570.000000	88.707	-161.3273
580.000000	88.692	-160.3275
590.000000	88.679	-159.3252
600.000000	88.669	-158.3214
608.000000	88.662	-157.5172
615.000000	88.658	-156.8130
622.000000	88.655	-156.1099
630.000000	88.652	-155.3072
640.000000	88.650	-154.3032
650.000000	88.651	-153.2982
660.000000	88.653	-152.2924
670.000000	88.658	-151.2875
680.000000	88.666	-150.2833
690.000000	88.676	-149.2811
700.000000	88.688	-148.2803
710.000000	88.703	-147.2792
720.000000	88.721	-146.2818
730.000000	88.741	-145.2868
740.000000	88.763	-144.2915
750.000000	88.789	-143.2996
762.000000	88.823	-142.1172
775.000000	88.864	-140.8438
788.000000	88.909	-139.5789
800.000000	88.953	-138.4181
812.000000	89.001	-137.2647
825.000000	89.056	-136.0279
838.000000	89.115	-134.8062
850.000000	89.173	-133.6901
862.000000	89.235	-132.5891
875.000000	89.305	-131.4142
885.000000	89.362	-130.5230
900.000000	89.451	-129.2048
912.000000	89.526	-128.1717
925.000000	89.610	-127.0756
938.000000	89.698	-126.0040
950.000000	89.781	-125.0380
962.000000	89.865	-124.0926
975.000000	89.959	-123.0921
988.000000	90.055	-122.1180
1000.000000	90.147	-121.2431
1015.000000	90.265	-120.1790
1030.000000	90.386	-119.1467
1044.000000	90.500	-118.2132
1060.000000	90.630	-117.1810
1075.000000	90.753	-116.2432
1090.000000	90.876	-115.3321
1106.000000	91.006	-114.3887
1120.000000	91.119	-113.5871
1138.000000	91.264	-112.5841
1150.000000	91.361	-111.9304
1172.000000	91.536	-110.7605
1180.000000	91.600	-110.3440
1206.000000	91.805	-109.0226
1220.000000	91.914	-108.3258
1241.000000	92.077	-107.2983
1250.000000	92.147	-106.8649
1265.000000	92.263	-106.1517
1280.000000	92.378	-105.4484
1315.000000	92.647	-103.8372
1320.000000	92.686	-103.6099
1340.000000	92.840	-102.7098
1360.000000	92.995	-101.8242
1380.000000	93.151	-100.9511
1400.000000	93.309	-100.0904
1430.000000	93.548	-98.8199
1450.000000	93.710	-97.9878
1475.000000	93.915	-96.9688
1500.000000	94.125	-95.9735
1525.000000	94.339	-95.0063
1550.000000	94.558	-94.0660
1575.000000	94.783	-93.1545
1600.000000	95.012	-92.2747
1625.000000	95.248	-91.4269
1650.000000	95.491	-90.6115
1675.000000	95.745	-89.8358
1700.000000	96.010	-89.1107
1725.000000	96.290	-88.4482
1750.000000	96.586	-87.8689
1775.000000	96.902	-87.4079
1800.000000	97.239	-87.1140
1825.000000	97.594	-87.0469
1850.000000	97.961	-87.2635
1875.000000	98.331	-87.8053
1900.000000	98.695	-88.6981
1925.000000	99.046	-89.9680
1950.000000	99.371	-91.6656
1975.000000	99.650	-93.8518
2000.000000	99.848	-96.5227
2030.000000	99.921	-100.1399
2060.000000	99.768	-103.5829
2090.000000	99.414	-105.9317
2120.000000	98.990	-106.6289
2140.000000	98.749	-106.3204
2180.000000	98.470	-104.9137
2200.000000	98.422	-104.1808
2240.000000	98.436	-103.1022
2270.000000	98.490	-102.7226
2300.000000	98.544	-102.6517
2330.000000	98.581	-102.7823
2360.000000	98.596	-103.0114
2400.000000	98.582	-103.3281
2430.000000	98.552	-103.4932
2470.000000	98.505	-103.5545
2500.000000	98.483	-103.5227
2540.000000	98.482	-103.6003
2580.000000	98.474	-104.0485
2620.000000	98.404	-104.7317
2650.000000	98.304	-105.1741
2690.000000	98.130	-105.5072
2720.000000	97.984	-105.5596
2760.000000	97.782	-105.4092
2800.000000	97.577	-105.0518
2850.000000	97.320	-104.3586
2900.000000	97.062	-103.4177
2950.000000	96.804	-102.2412
3000.000000	96.547	-100.8229
3040.000000	96.337	-99.4742
3070.000000	96.179	-98.2807
3110.000000	95.980	-96.3508
3150.000000	95.830	-94.0269
3200.000000	95.765	-90.9722
3250.000000	95.810	-88.4336
3300.000000	95.870	-86.5703
3350.000000	95.895	-85.0548
3400.000000	95.888	-83.6136
3450.000000	95.865	-82.1388
3500.000000	95.837	-80.6090
3550.000000	95.812	-79.0384
3600.000000	95.794	-77.4498
3650.000000	95.786	-75.8700
3700.000000	95.787	-74.3300
3750.000000	95.792	-72.8552
3820.000000	95.794	-70.9011
3870.000000	95.783	-69.5244
3950.000000	95.756	-67.1311
4000.000000	95.762	-65.4997
4060.000000	95.807	-63.6065
4120.000000	95.868	-61.9296
4180.000000	95.920	-60.4075
4250.000000	95.969	-58.6236
4310.000000	96.025	-57.0216
4370.000000	96.112	-55.4546
4440.000000	96.253	-53.8565
4500.000000	96.398	-52.8035
4550.000000	96.527	-52.2217
4620.000000	96.695	-51.9508
4680.000000	96.798	-52.2612
4750.000000	96.825	-53.1867
4820.000000	96.705	-54.4498
4870.000000	96.512	-55.2758
4940.000000	96.101	-55.8098
5000.000000	95.668	-55.3073
5080.000000	95.124	-53.1947
5150.000000	94.789	-50.8862
5220.000000	94.504	-48.9223
5300.000000	94.131	-46.5123
5380.000000	93.792	-43.5973
5450.000000	93.559	-41.1880
5520.000000	93.310	-39.2540
5600.000000	92.880	-37.3095
5700.000000	91.972	-33.1198
5800.000000	90.987	-22.5415
5900.000000	91.418	-7.8850
6000.000000	92.813	-0.8304
6080.000000	93.525	-0.4124
6150.000000	93.807	-0.7500
6220.000000	93.906	-0.6231
6300.000000	93.915	0.2714
6400.000000	93.884	2.3019
6500.000000	93.869	5.0217
6600.000000	93.895	8.0829
6700.000000	93.951	11.3462
6800.000000	94.044	14.8584
6900.000000	94.201	18.6152
7000.000000	94.452	22.4988
7100.000000	94.817	26.2977
7200.000000	95.302	29.7383
7300.000000	95.891	32.5639
7400.000000	96.564	34.6463
7500.000000	97.322	35.8580
7620.000000	98.336	35.6967
7750.000000	99.457	32.5777
7880.000000	100.336	25.6214
8000.000000	100.641	16.3444
8120.000000	100.296	6.4291
8250.000000	99.269	-2.2691
8380.000000	97.833	-7.4671
8500.000000	96.379	-9.3533
8620.000000	94.941	-9.1493
8750.000000	93.444	-7.4347
8850.000000	92.273	-5.1317
9000.000000	90.390	2.0111
9120.000000	89.161	11.6333
9250.000000	88.581	22.3519
9380.000000	88.448	30.9300
9500.000000	88.406	37.4344
9620.000000	88.368	43.3412
9750.000000	88.346	49.6464
9880.000000	88.401	56.0908
10000.000000	88.565	62.1272
10150.000000	88.989	69.6617
10300.000000	89.728	76.7633
10440.000000	90.784	82.3000
10600.000000	92.278	84.9589
10750.000000	93.433	82.8781
10900.000000	94.266	78.9962
11060.000000	95.087	73.1280
11200.000000	95.538	64.3344
11380.000000	94.974	50.0960
11500.000000	93.691	44.5497
11720.000000	90.887	48.8231
11800.000000	90.257	52.4493
12060.000000	89.579	62.1432
12200.000000	89.558	65.5356
12410.000000	89.640	69.0425
12500.000000	89.702	70.1385
12650.000000	89.840	71.5809
12800.000000	90.034	72.6218
13150.000000	90.734	72.6918
13200.000000	90.856	72.3598
13400.000000	91.392	69.8785
13600.000000	91.881	64.8118
13800.000000	92.038	57.3957
14000.000000	91.691	49.9753
14300.000000	90.695	45.4503
14500.000000	90.729	46.3451
14750.000000	91.859	43.9291
15000.000000	93.220	34.4657
15250.000000	94.344	19.1964
15500.000000	94.964	-0.7299
15750.000000	94.923	-22.6483
16000.000000	94.454	-44.2825
16250.000000	93.852	-66.7340
16500.000000	93.081	-92.5371
16750.000000	91.768	-122.6596
17000.000000	89.464	-154.3202
17250.000000	85.929	178.7773
17500.000000	81.303	161.9659
17750.000000	76.104	155.8029
18000.000000	71.026	158.3453
18250.000000	66.965	166.2677
18500.000000	65.057	172.0146
18750.000000	64.807	169.0723
19000.000000	64.820	157.3970
19250.000000	64.586	139.6561
19500.000000	64.085	118.2039
19750.000000	63.480	96.5064
