* Measurement data measured by REW V5.20.13
* Source: Headset (USB-C to 3.5mm Headphone Jack Adapter), MICROPHONE (Master Volume), L, volume: 0.250
* Format: 256k Log Swept Sine, 1 sweep at -12.0 dBFS with no timing reference
* Dated: 09 30, 24 12:47:32 AM
* REW Settings:
*  C-weighting compensation: Off
*  Target level: 75.0 dB
* Note: ; 
* Measurement: JVC HA-FXZ200 CP100 L
* Smoothing: 1/24 octave
* Frequency Step: 1/48 octave
* Start Frequency: 20.300 Hz
*
* Freq(Hz)	SPL(dB)	Phase(degrees)
20.299999	99.238	-110.8759
20.600000	99.277	-111.4834
20.900000	99.354	-112.5665
21.200001	99.425	-113.5912
21.400000	99.468	-114.2425
21.799999	99.548	-115.5186
22.000000	99.587	-116.1523
22.400000	99.659	-117.3827
22.700001	99.711	-118.2621
23.000000	99.763	-119.1116
23.299999	99.816	-119.9443
23.600000	99.871	-120.7737
24.000000	99.942	-121.8902
24.299999	99.993	-122.7363
24.700001	100.056	-123.8612
25.000000	100.098	-124.6861
25.400000	100.151	-125.7438
25.799999	100.201	-126.7503
26.200001	100.252	-127.7210
26.500000	100.290	-128.4394
26.900000	100.340	-129.3962
27.200001	100.375	-130.1124
27.600000	100.420	-131.0539
28.000000	100.460	-131.9625
28.500000	100.508	-133.0449
29.000000	100.555	-134.0984
29.500000	100.598	-135.1613
30.000000	100.634	-136.2316
30.400000	100.661	-137.0682
30.700001	100.682	-137.6750
31.100000	100.714	-138.4613
31.500000	100.749	-139.2325
32.000000	100.789	-140.1737
32.500000	100.816	-141.0569
33.000000	100.835	-141.8839
33.500000	100.858	-142.7578
34.000000	100.882	-143.8182
34.500000	100.893	-145.0533
35.000000	100.884	-146.2533
35.500000	100.872	-147.1670
36.000000	100.888	-147.7556
36.500000	100.941	-148.2071
37.000000	101.004	-148.7411
37.500000	101.047	-149.4084
38.200001	101.061	-150.4112
38.700001	101.061	-151.1085
39.500000	101.078	-152.2602
40.000000	101.093	-152.9974
40.599998	101.107	-153.8313
41.200001	101.119	-154.5965
41.799999	101.129	-155.3488
42.500000	101.138	-156.2559
43.099998	101.143	-157.0393
43.700001	101.147	-157.7995
44.400002	101.151	-158.6430
45.000000	101.152	-159.3414
45.500000	101.152	-159.9233
46.200001	101.150	-160.7390
46.799999	101.148	-161.4168
47.500000	101.149	-162.1729
48.200001	101.152	-162.9173
48.700001	101.152	-163.4474
49.400002	101.147	-164.1755
50.000000	101.143	-164.7880
50.799999	101.138	-165.5971
51.500000	101.135	-166.2795
52.200001	101.135	-166.9392
53.000000	101.131	-167.7111
53.799999	101.115	-168.4883
54.500000	101.097	-169.1383
55.200001	101.085	-169.8005
56.000000	101.074	-170.5896
57.000000	101.054	-171.4406
58.000000	101.045	-172.1478
59.000000	101.033	-172.9580
60.000000	101.003	-173.7912
60.799999	100.982	-174.3891
61.500000	100.970	-174.8821
62.200001	100.960	-175.3739
63.000000	100.946	-175.9507
64.000000	100.922	-176.6833
65.000000	100.898	-177.4078
66.000000	100.874	-178.1187
67.000000	100.849	-178.8119
68.000000	100.823	-179.4915
69.000000	100.796	179.8530
70.000000	100.773	179.2155
71.000000	100.749	178.5689
72.000000	100.716	177.9400
73.000000	100.679	177.3436
74.000000	100.645	176.7410
75.000000	100.609	176.1370
76.199997	100.566	175.4348
77.500000	100.521	174.6617
78.800003	100.484	173.9904
80.000000	100.465	173.4327
81.199997	100.431	172.8177
82.500000	100.379	172.1449
83.800003	100.332	171.4610
85.000000	100.305	170.8619
86.199997	100.282	170.2440
87.500000	100.234	169.6371
88.500000	100.194	169.3535
90.000000	100.148	168.9526
91.199997	100.094	168.3959
92.500000	100.027	167.6843
93.800003	99.978	167.0734
95.000000	99.947	166.5910
96.199997	99.916	166.1304
97.500000	99.875	165.6169
98.800003	99.825	165.0650
100.000000	99.778	164.5588
101.500000	99.720	163.9725
103.000000	99.660	163.4121
104.400002	99.606	162.8968
106.000000	99.549	162.3264
107.500000	99.494	161.8028
109.000000	99.436	161.2893
110.599998	99.371	160.7549
112.000000	99.316	160.3036
113.800003	99.246	159.7386
115.000000	99.199	159.3702
117.199997	99.111	158.7136
118.000000	99.080	158.4832
120.599998	98.977	157.7501
122.000000	98.920	157.3681
124.099998	98.839	156.8145
125.000000	98.805	156.5785
126.500000	98.749	156.1879
128.000000	98.693	155.8011
131.500000	98.563	154.9572
132.000000	98.544	154.8395
134.000000	98.468	154.3599
136.000000	98.390	153.9021
138.000000	98.316	153.4943
140.000000	98.243	153.1102
143.000000	98.129	152.4893
145.000000	98.052	152.0661
147.500000	97.962	151.5721
150.000000	97.871	151.1403
152.500000	97.768	150.7035
155.000000	97.669	150.2821
157.500000	97.576	149.9110
160.000000	97.479	149.5234
162.500000	97.374	149.1550
165.000000	97.264	148.8055
167.500000	97.152	148.4695
170.000000	97.040	148.1454
172.500000	96.928	147.8380
175.000000	96.817	147.5491
177.500000	96.708	147.2749
180.000000	96.600	147.0101
182.500000	96.491	146.7549
185.000000	96.382	146.5144
187.500000	96.272	146.2866
190.000000	96.164	146.0726
192.500000	96.057	145.8660
195.000000	95.951	145.6641
197.500000	95.847	145.4789
200.000000	95.746	145.3168
203.000000	95.633	145.1432
206.000000	95.524	144.9775
209.000000	95.417	144.8252
212.000000	95.312	144.6950
214.000000	95.242	144.6102
218.000000	95.103	144.4474
220.000000	95.033	144.3785
224.000000	94.895	144.2570
227.000000	94.793	144.1818
230.000000	94.691	144.1279
233.000000	94.589	144.0873
236.000000	94.489	144.0541
240.000000	94.357	144.0260
243.000000	94.257	144.0194
247.000000	94.125	144.0292
250.000000	94.027	144.0585
254.000000	93.896	144.1282
258.000000	93.763	144.2090
262.000000	93.630	144.2860
265.000000	93.532	144.3505
269.000000	93.404	144.4590
272.000000	93.308	144.5534
276.000000	93.184	144.6927
280.000000	93.061	144.8532
285.000000	92.909	145.0699
290.000000	92.760	145.3115
295.000000	92.612	145.5718
300.000000	92.468	145.8667
304.000000	92.356	146.1159
307.000000	92.272	146.3030
311.000000	92.162	146.5618
315.000000	92.054	146.8395
320.000000	91.924	147.2014
325.000000	91.797	147.5651
330.000000	91.672	147.9506
335.000000	91.550	148.3582
340.000000	91.432	148.7742
345.000000	91.317	149.1973
350.000000	91.202	149.6324
355.000000	91.092	150.0812
360.000000	90.984	150.5407
365.000000	90.877	151.0099
370.000000	90.775	151.4876
375.000000	90.677	151.9716
382.000000	90.543	152.6514
387.000000	90.448	153.1499
395.000000	90.300	153.9685
400.000000	90.211	154.4784
406.000000	90.110	155.0995
412.000000	90.011	155.7288
418.000000	89.914	156.3599
425.000000	89.806	157.1041
431.000000	89.716	157.7456
437.000000	89.630	158.3850
444.000000	89.532	159.1403
450.000000	89.452	159.7940
455.000000	89.386	160.3351
462.000000	89.297	161.0943
468.000000	89.223	161.7533
475.000000	89.140	162.5234
482.000000	89.060	163.2883
487.000000	89.005	163.8378
494.000000	88.931	164.6115
500.000000	88.869	165.2747
508.000000	88.790	166.1605
515.000000	88.724	166.9263
522.000000	88.660	167.6875
530.000000	88.590	168.5611
538.000000	88.522	169.4409
545.000000	88.466	170.2161
552.000000	88.412	170.9954
560.000000	88.352	171.8896
570.000000	88.278	172.9966
580.000000	88.211	174.0847
590.000000	88.149	175.1843
600.000000	88.089	176.2795
608.000000	88.043	177.1551
615.000000	88.005	177.9288
622.000000	87.970	178.7047
630.000000	87.933	179.5913
640.000000	87.889	-179.3035
650.000000	87.846	-178.1942
660.000000	87.808	-177.0844
670.000000	87.774	-175.9751
680.000000	87.743	-174.8614
690.000000	87.717	-173.7438
700.000000	87.695	-172.6300
710.000000	87.679	-171.5156
720.000000	87.668	-170.4100
730.000000	87.663	-169.3343
740.000000	87.660	-168.2906
750.000000	87.657	-167.2693
762.000000	87.654	-166.0518
775.000000	87.650	-164.7083
788.000000	87.649	-163.3399
800.000000	87.653	-162.0736
812.000000	87.661	-160.7991
825.000000	87.677	-159.4099
838.000000	87.700	-158.0205
850.000000	87.730	-156.7390
862.000000	87.768	-155.4827
875.000000	87.815	-154.1599
885.000000	87.852	-153.1544
900.000000	87.915	-151.6703
912.000000	87.973	-150.5017
925.000000	88.042	-149.2639
938.000000	88.116	-148.0612
950.000000	88.188	-146.9778
962.000000	88.264	-145.9197
975.000000	88.350	-144.8061
988.000000	88.439	-143.7246
1000.000000	88.526	-142.7542
1015.000000	88.641	-141.5839
1030.000000	88.761	-140.4635
1044.000000	88.875	-139.4610
1060.000000	89.009	-138.3655
1075.000000	89.137	-137.3894
1090.000000	89.265	-136.4667
1106.000000	89.401	-135.5307
1120.000000	89.520	-134.7484
1138.000000	89.671	-133.7921
1150.000000	89.772	-133.1787
1172.000000	89.956	-132.0906
1180.000000	90.023	-131.7094
1206.000000	90.243	-130.5366
1220.000000	90.363	-129.9455
1241.000000	90.544	-129.1165
1250.000000	90.622	-128.7860
1265.000000	90.752	-128.2706
1280.000000	90.882	-127.8005
1315.000000	91.185	-126.9311
1320.000000	91.228	-126.8400
1340.000000	91.394	-126.5788
1360.000000	91.547	-126.5140
1380.000000	91.673	-126.6870
1400.000000	91.743	-127.0832
1430.000000	91.671	-127.6626
1450.000000	91.495	-127.3560
1475.000000	91.255	-125.4409
1500.000000	91.192	-122.2642
1525.000000	91.356	-119.0959
1550.000000	91.643	-116.6350
1575.000000	91.959	-114.8658
1600.000000	92.265	-113.5553
1625.000000	92.552	-112.5123
1650.000000	92.824	-111.6426
1675.000000	93.084	-110.9033
1700.000000	93.332	-110.2692
1725.000000	93.567	-109.7203
1750.000000	93.787	-109.2171
1775.000000	93.996	-108.7132
1800.000000	94.198	-108.1926
1825.000000	94.399	-107.6588
1850.000000	94.600	-107.1180
1875.000000	94.804	-106.5817
1900.000000	95.012	-106.0679
1925.000000	95.221	-105.5839
1950.000000	95.432	-105.1265
1975.000000	95.644	-104.6982
2000.000000	95.857	-104.3019
2030.000000	96.114	-103.8617
2060.000000	96.372	-103.4586
2090.000000	96.631	-103.0986
2120.000000	96.892	-102.7810
2140.000000	97.067	-102.5899
2180.000000	97.419	-102.2563
2200.000000	97.597	-102.1142
2240.000000	97.955	-101.8673
2270.000000	98.231	-101.7097
2300.000000	98.516	-101.5901
2330.000000	98.813	-101.5378
2360.000000	99.121	-101.5946
2400.000000	99.539	-101.9047
2430.000000	99.849	-102.3146
2470.000000	100.252	-103.0472
2500.000000	100.545	-103.7127
2540.000000	100.925	-104.7405
2580.000000	101.293	-105.9198
2620.000000	101.646	-107.2527
2650.000000	101.900	-108.3579
2690.000000	102.223	-109.9663
2720.000000	102.450	-111.2673
2760.000000	102.732	-113.1219
2800.000000	102.986	-115.0977
2850.000000	103.261	-117.6959
2900.000000	103.487	-120.3900
2950.000000	103.660	-123.1272
3000.000000	103.782	-125.8456
3040.000000	103.844	-127.9717
3070.000000	103.872	-129.5203
3110.000000	103.885	-131.5027
3150.000000	103.870	-133.3748
3200.000000	103.816	-135.5423
3250.000000	103.733	-137.4951
3300.000000	103.631	-139.2211
3350.000000	103.519	-140.7229
3400.000000	103.403	-142.0094
3450.000000	103.288	-143.0983
3500.000000	103.182	-144.0190
3550.000000	103.085	-144.7982
3600.000000	103.001	-145.4587
3650.000000	102.931	-146.0334
3700.000000	102.877	-146.5568
3750.000000	102.837	-147.0567
3820.000000	102.799	-147.7601
3870.000000	102.781	-148.2802
3950.000000	102.762	-149.1028
4000.000000	102.758	-149.5827
4060.000000	102.775	-150.1379
4120.000000	102.820	-150.7548
4180.000000	102.887	-151.5499
4250.000000	102.973	-152.7997
4310.000000	103.029	-154.1394
4370.000000	103.050	-155.6483
4440.000000	103.015	-157.3688
4500.000000	102.961	-158.4759
4550.000000	102.954	-159.1580
4620.000000	103.031	-160.3301
4680.000000	103.129	-161.8837
4750.000000	103.216	-164.3072
4820.000000	103.239	-167.2162
4870.000000	103.207	-169.4952
4940.000000	103.086	-172.8322
5000.000000	102.909	-175.7096
5080.000000	102.569	-179.3854
5150.000000	102.188	177.6966
5220.000000	101.743	175.1615
5300.000000	101.179	172.7991
5380.000000	100.580	171.0272
5450.000000	100.042	169.9460
5520.000000	99.503	169.2706
5600.000000	98.897	168.9440
5700.000000	98.167	169.1229
5800.000000	97.477	169.8678
5900.000000	96.838	171.0962
6000.000000	96.258	172.7263
6080.000000	95.841	174.2554
6150.000000	95.514	175.7133
6220.000000	95.222	177.2485
6300.000000	94.932	179.0583
6400.000000	94.637	-178.6582
6500.000000	94.406	-176.4182
6600.000000	94.230	-174.2770
6700.000000	94.099	-172.2679
6800.000000	94.007	-170.4147
6900.000000	93.947	-168.7326
7000.000000	93.916	-167.2430
7100.000000	93.906	-165.9743
7200.000000	93.906	-164.9472
7300.000000	93.895	-164.1189
7400.000000	93.863	-163.3582
7500.000000	93.812	-162.4930
7620.000000	93.749	-161.1046
7750.000000	93.739	-159.0413
7880.000000	93.866	-156.5076
8000.000000	94.149	-154.0652
8120.000000	94.619	-151.9671
8250.000000	95.364	-150.7041
8380.000000	96.336	-151.2833
8500.000000	97.352	-154.2961
8620.000000	98.315	-160.4531
8750.000000	99.019	-170.8647
8850.000000	99.151	179.3000
9000.000000	98.573	164.6416
9120.000000	97.564	155.3452
9250.000000	96.184	148.6215
9380.000000	94.750	144.9056
9500.000000	93.510	143.3994
9620.000000	92.399	143.1376
9750.000000	91.352	143.7789
9880.000000	90.463	145.0469
10000.000000	89.776	146.5716
10150.000000	89.090	148.7478
10300.000000	88.582	151.0469
10440.000000	88.256	153.1651
10600.000000	88.056	155.4053
10750.000000	88.038	157.1679
10900.000000	88.193	158.3950
11060.000000	88.563	158.7941
11200.000000	89.068	157.9699
11380.000000	89.937	154.3741
11500.000000	90.580	149.6578
11720.000000	91.472	134.6005
11800.000000	91.558	127.1510
12060.000000	90.472	101.0131
12200.000000	89.071	89.5253
12410.000000	86.396	78.3571
12500.000000	85.191	75.4881
12650.000000	83.250	72.5029
12800.000000	81.458	71.0671
13150.000000	77.876	70.9069
13200.000000	77.425	71.0814
13400.000000	75.744	71.9930
13600.000000	74.237	73.0386
13800.000000	72.875	74.0235
14000.000000	71.634	74.8239
14300.000000	69.969	75.4876
14500.000000	68.979	75.5035
14750.000000	67.876	74.9443
15000.000000	66.925	73.5636
15250.000000	66.130	71.1950
15500.000000	65.507	67.7405
15750.000000	65.078	63.1194
16000.000000	64.847	57.1552
16250.000000	64.834	49.6537
16500.000000	65.076	40.3613
16750.000000	65.571	28.9861
17000.000000	66.286	15.2712
17250.000000	67.178	-0.9438
17500.000000	68.193	-19.9377
17750.000000	69.234	-42.1600
18000.000000	70.152	-67.9421
18250.000000	70.782	-97.1252
18500.000000	71.024	-128.8948
18750.000000	70.880	-162.3019
19000.000000	70.422	163.0703
19250.000000	69.711	127.0093
19500.000000	68.754	89.6300
19750.000000	67.620	54.5582
