* Measurement data measured by REW V5.20.13
* Source: Headset (USB-C to 3.5mm Headphone Jack Adapter), MICROPHONE (Master Volume), L, volume: 0.250
* Format: 256k Log Swept Sine, 1 sweep at -12.0 dBFS with no timing reference
* Dated: 09 30, 24 3:54:01 PM
* REW Settings:
*  C-weighting compensation: Off
*  Target level: 75.0 dB
* Note: ; CP100
* Measurement: JVC HA-FXT200LTD CP100 L
* Smoothing: 1/24 octave
* Frequency Step: 1/48 octave
* Start Frequency: 20.300 Hz
*
* Freq(Hz)	SPL(dB)	Phase(degrees)
20.299999	97.227	-89.1917
20.600000	97.277	-89.8280
20.900000	97.377	-90.9432
21.200001	97.470	-91.9455
21.400000	97.532	-92.5542
21.799999	97.664	-93.7162
22.000000	97.736	-94.3017
22.400000	97.889	-95.5016
22.700001	98.004	-96.4351
23.000000	98.111	-97.3972
23.299999	98.207	-98.3638
23.600000	98.290	-99.3088
24.000000	98.384	-100.5015
24.299999	98.447	-101.3374
24.700001	98.529	-102.3941
25.000000	98.592	-103.1700
25.400000	98.680	-104.2107
25.799999	98.769	-105.2611
26.200001	98.855	-106.2962
26.500000	98.919	-107.0473
26.900000	99.005	-108.0127
27.200001	99.068	-108.7203
27.600000	99.151	-109.6598
28.000000	99.227	-110.6004
28.500000	99.311	-111.7534
29.000000	99.388	-112.8515
29.500000	99.469	-113.9167
30.000000	99.553	-115.0132
30.400000	99.618	-115.9335
30.700001	99.660	-116.6376
31.100000	99.708	-117.5606
31.500000	99.748	-118.4346
32.000000	99.796	-119.4411
32.500000	99.849	-120.3797
33.000000	99.909	-121.2984
33.500000	99.973	-122.2245
34.000000	100.036	-123.1605
34.500000	100.096	-124.0904
35.000000	100.151	-124.9898
35.500000	100.204	-125.8377
36.000000	100.256	-126.6382
36.500000	100.308	-127.4189
37.000000	100.358	-128.2054
37.500000	100.400	-128.9944
38.200001	100.451	-130.0651
38.700001	100.487	-130.8050
39.500000	100.552	-132.0070
40.000000	100.592	-132.7705
40.599998	100.633	-133.6564
41.200001	100.670	-134.4852
41.799999	100.703	-135.2798
42.500000	100.738	-136.2021
43.099998	100.767	-136.9965
43.700001	100.799	-137.7908
44.400002	100.839	-138.7029
45.000000	100.873	-139.4500
45.500000	100.901	-140.0458
46.200001	100.937	-140.8683
46.799999	100.963	-141.5840
47.500000	100.985	-142.4118
48.200001	101.007	-143.1988
48.700001	101.023	-143.7357
49.400002	101.046	-144.4639
50.000000	101.062	-145.0704
50.799999	101.082	-145.8711
51.500000	101.103	-146.5932
52.200001	101.124	-147.3297
53.000000	101.145	-148.1258
53.799999	101.163	-148.8318
54.500000	101.180	-149.4205
55.200001	101.198	-150.0486
56.000000	101.212	-150.8213
57.000000	101.225	-151.7664
58.000000	101.241	-152.6564
59.000000	101.257	-153.5052
60.000000	101.277	-154.3001
60.799999	101.296	-154.9517
61.500000	101.309	-155.5278
62.200001	101.317	-156.0789
63.000000	101.325	-156.6845
64.000000	101.328	-157.4201
65.000000	101.326	-158.1155
66.000000	101.327	-158.8005
67.000000	101.333	-159.4935
68.000000	101.337	-160.1772
69.000000	101.337	-160.8241
70.000000	101.338	-161.4508
71.000000	101.341	-162.0847
72.000000	101.346	-162.7261
73.000000	101.346	-163.3560
74.000000	101.340	-163.9736
75.000000	101.332	-164.6076
76.199997	101.327	-165.3408
77.500000	101.343	-166.0107
78.800003	101.367	-166.6830
80.000000	101.344	-167.4185
81.199997	101.309	-168.0630
82.500000	101.305	-168.6698
83.800003	101.289	-169.2133
85.000000	101.268	-169.8551
86.199997	101.268	-170.6797
87.500000	101.269	-171.3509
88.500000	101.268	-171.7163
90.000000	101.255	-172.4074
91.199997	101.248	-172.9059
92.500000	101.244	-173.4069
93.800003	101.233	-173.9855
95.000000	101.222	-174.5284
96.199997	101.209	-175.0248
97.500000	101.192	-175.5547
98.800003	101.175	-176.0959
100.000000	101.159	-176.5918
101.500000	101.140	-177.1861
103.000000	101.123	-177.7568
104.400002	101.104	-178.2953
106.000000	101.080	-178.9071
107.500000	101.055	-179.4426
109.000000	101.029	-179.9530
110.599998	101.005	179.4963
112.000000	100.983	178.9963
113.800003	100.955	178.3777
115.000000	100.934	177.9821
117.199997	100.890	177.2592
118.000000	100.877	177.0005
120.599998	100.838	176.2153
122.000000	100.813	175.8057
124.099998	100.773	175.2096
125.000000	100.759	174.9542
126.500000	100.738	174.5372
128.000000	100.721	174.1544
131.500000	100.667	173.2419
132.000000	100.658	173.1078
134.000000	100.621	172.5609
136.000000	100.591	171.9982
138.000000	100.558	171.4794
140.000000	100.521	170.9781
143.000000	100.468	170.2710
145.000000	100.435	169.8254
147.500000	100.392	169.2781
150.000000	100.346	168.7258
152.500000	100.299	168.1834
155.000000	100.251	167.6562
157.500000	100.204	167.1873
160.000000	100.151	166.7134
162.500000	100.090	166.2245
165.000000	100.026	165.7653
167.500000	99.964	165.3247
170.000000	99.901	164.8867
172.500000	99.837	164.4619
175.000000	99.773	164.0464
177.500000	99.708	163.6391
180.000000	99.643	163.2471
182.500000	99.577	162.8665
185.000000	99.512	162.4957
187.500000	99.447	162.1344
190.000000	99.384	161.7764
192.500000	99.321	161.4265
195.000000	99.257	161.0946
197.500000	99.194	160.7801
200.000000	99.135	160.4767
203.000000	99.070	160.1212
206.000000	99.009	159.7715
209.000000	98.949	159.4338
212.000000	98.891	159.1086
214.000000	98.853	158.8992
218.000000	98.777	158.4875
220.000000	98.739	158.2841
224.000000	98.661	157.8833
227.000000	98.602	157.6019
230.000000	98.542	157.3385
233.000000	98.483	157.0877
236.000000	98.425	156.8444
240.000000	98.346	156.5310
243.000000	98.287	156.3026
247.000000	98.210	156.0125
250.000000	98.151	155.8118
254.000000	98.069	155.5625
258.000000	97.986	155.3196
262.000000	97.904	155.0859
265.000000	97.843	154.9212
269.000000	97.762	154.7173
272.000000	97.702	154.5766
276.000000	97.623	154.3997
280.000000	97.545	154.2262
285.000000	97.448	154.0237
290.000000	97.354	153.8378
295.000000	97.260	153.6543
300.000000	97.166	153.4727
304.000000	97.091	153.3386
307.000000	97.035	153.2450
311.000000	96.959	153.1298
315.000000	96.885	153.0257
320.000000	96.793	152.9083
325.000000	96.701	152.8072
330.000000	96.610	152.7166
335.000000	96.521	152.6339
340.000000	96.433	152.5674
345.000000	96.346	152.5203
350.000000	96.259	152.4791
355.000000	96.172	152.4500
360.000000	96.087	152.4360
365.000000	96.002	152.4347
370.000000	95.918	152.4431
375.000000	95.836	152.4614
382.000000	95.722	152.4980
387.000000	95.642	152.5321
395.000000	95.514	152.6104
400.000000	95.435	152.6778
406.000000	95.342	152.7658
412.000000	95.250	152.8598
418.000000	95.159	152.9666
425.000000	95.055	153.1098
431.000000	94.967	153.2443
437.000000	94.880	153.3889
444.000000	94.780	153.5683
450.000000	94.695	153.7308
455.000000	94.624	153.8725
462.000000	94.528	154.0823
468.000000	94.447	154.2734
475.000000	94.353	154.5076
482.000000	94.261	154.7527
487.000000	94.195	154.9322
494.000000	94.105	155.1896
500.000000	94.029	155.4193
508.000000	93.929	155.7385
515.000000	93.842	156.0310
522.000000	93.757	156.3349
530.000000	93.662	156.6946
538.000000	93.569	157.0638
545.000000	93.489	157.3952
552.000000	93.410	157.7352
560.000000	93.322	158.1358
570.000000	93.214	158.6512
580.000000	93.109	159.1776
590.000000	93.007	159.7214
600.000000	92.907	160.2847
608.000000	92.830	160.7434
615.000000	92.764	161.1519
622.000000	92.699	161.5683
630.000000	92.627	162.0512
640.000000	92.538	162.6628
650.000000	92.451	163.2880
660.000000	92.367	163.9261
670.000000	92.286	164.5763
680.000000	92.208	165.2357
690.000000	92.134	165.9038
700.000000	92.063	166.5828
710.000000	91.995	167.2679
720.000000	91.931	167.9615
730.000000	91.869	168.6649
740.000000	91.810	169.3758
750.000000	91.755	170.0911
762.000000	91.693	170.9545
775.000000	91.631	171.8976
788.000000	91.574	172.8456
800.000000	91.526	173.7256
812.000000	91.482	174.6074
825.000000	91.438	175.5567
838.000000	91.400	176.5017
850.000000	91.370	177.3734
862.000000	91.345	178.2390
875.000000	91.323	179.1622
885.000000	91.310	179.8618
900.000000	91.296	-179.1016
912.000000	91.288	-178.2831
925.000000	91.282	-177.4141
938.000000	91.280	-176.5656
950.000000	91.283	-175.8017
962.000000	91.288	-175.0574
975.000000	91.296	-174.2727
988.000000	91.307	-173.5078
1000.000000	91.319	-172.8181
1015.000000	91.338	-171.9775
1030.000000	91.359	-171.1487
1044.000000	91.380	-170.3560
1060.000000	91.415	-169.4092
1075.000000	91.466	-168.5389
1090.000000	91.532	-167.7918
1106.000000	91.601	-167.1608
1120.000000	91.651	-166.6965
1138.000000	91.701	-166.1520
1150.000000	91.729	-165.8071
1172.000000	91.772	-165.2149
1180.000000	91.786	-165.0150
1206.000000	91.817	-164.4174
1220.000000	91.823	-164.1264
1241.000000	91.814	-163.7245
1250.000000	91.801	-163.5518
1265.000000	91.768	-163.2305
1280.000000	91.722	-162.8271
1315.000000	91.598	-161.4194
1320.000000	91.583	-161.1718
1340.000000	91.533	-160.1240
1360.000000	91.485	-158.9576
1380.000000	91.444	-157.5204
1400.000000	91.448	-155.8265
1430.000000	91.561	-153.3957
1450.000000	91.672	-152.0850
1475.000000	91.815	-150.7489
1500.000000	91.948	-149.6153
1525.000000	92.071	-148.5911
1550.000000	92.188	-147.6343
1575.000000	92.300	-146.7243
1600.000000	92.410	-145.8455
1625.000000	92.517	-144.9939
1650.000000	92.624	-144.1736
1675.000000	92.733	-143.3932
1700.000000	92.842	-142.6567
1725.000000	92.953	-141.9720
1750.000000	93.064	-141.3511
1775.000000	93.174	-140.8026
1800.000000	93.280	-140.3365
1825.000000	93.377	-139.9602
1850.000000	93.459	-139.6716
1875.000000	93.518	-139.4577
1900.000000	93.546	-139.2785
1925.000000	93.536	-139.0519
1950.000000	93.484	-138.6485
1975.000000	93.399	-137.9127
2000.000000	93.301	-136.7155
2030.000000	93.214	-134.6207
2060.000000	93.213	-131.9673
2090.000000	93.328	-129.0941
2120.000000	93.552	-126.3382
2140.000000	93.750	-124.6733
2180.000000	94.229	-121.8842
2200.000000	94.498	-120.7883
2240.000000	95.064	-119.2334
2270.000000	95.487	-118.6060
2300.000000	95.891	-118.3582
2330.000000	96.270	-118.3893
2360.000000	96.624	-118.6257
2400.000000	97.061	-119.1913
2430.000000	97.364	-119.7708
2470.000000	97.736	-120.7201
2500.000000	97.991	-121.5470
2540.000000	98.299	-122.7701
2580.000000	98.570	-124.0920
2620.000000	98.804	-125.4676
2650.000000	98.955	-126.5127
2690.000000	99.128	-127.9000
2720.000000	99.237	-128.9185
2760.000000	99.360	-130.2290
2800.000000	99.459	-131.4722
2850.000000	99.558	-132.9179
2900.000000	99.634	-134.2331
2950.000000	99.692	-135.4208
3000.000000	99.739	-136.4889
3040.000000	99.771	-137.2639
3070.000000	99.792	-137.8035
3110.000000	99.817	-138.4727
3150.000000	99.837	-139.0904
3200.000000	99.855	-139.8000
3250.000000	99.867	-140.4490
3300.000000	99.878	-141.0427
3350.000000	99.888	-141.5770
3400.000000	99.899	-142.0422
3450.000000	99.915	-142.4281
3500.000000	99.941	-142.7434
3550.000000	99.984	-143.0286
3600.000000	100.043	-143.3313
3650.000000	100.116	-143.6851
3700.000000	100.199	-144.1059
3750.000000	100.290	-144.6036
3820.000000	100.431	-145.4508
3870.000000	100.538	-146.1821
3950.000000	100.717	-147.6174
4000.000000	100.828	-148.7077
4060.000000	100.955	-150.2408
4120.000000	101.064	-152.0367
4180.000000	101.142	-154.0951
4250.000000	101.174	-156.7680
4310.000000	101.138	-159.1637
4370.000000	101.042	-161.4909
4440.000000	100.871	-163.9438
4500.000000	100.703	-165.7880
4550.000000	100.561	-167.2058
4620.000000	100.363	-169.1535
4680.000000	100.181	-170.8692
4750.000000	99.937	-172.9144
4820.000000	99.645	-174.9102
4870.000000	99.407	-176.2409
4940.000000	99.037	-177.8988
5000.000000	98.691	-179.0873
5080.000000	98.202	179.6970
5150.000000	97.759	178.9835
5220.000000	97.314	178.5831
5300.000000	96.811	178.4778
5380.000000	96.321	178.7095
5450.000000	95.908	179.1553
5520.000000	95.511	179.7974
5600.000000	95.080	-179.2626
5700.000000	94.573	-177.8088
5800.000000	94.099	-176.0511
5900.000000	93.662	-173.9628
6000.000000	93.277	-171.5379
6080.000000	93.018	-169.4048
6150.000000	92.831	-167.4544
6220.000000	92.681	-165.4676
6300.000000	92.552	-163.1784
6400.000000	92.453	-160.2906
6500.000000	92.424	-157.3600
6600.000000	92.470	-154.4150
6700.000000	92.601	-151.5388
6800.000000	92.817	-148.8405
6900.000000	93.115	-146.4024
7000.000000	93.493	-144.2723
7100.000000	93.953	-142.5027
7200.000000	94.500	-141.1759
7300.000000	95.142	-140.4124
7400.000000	95.883	-140.3835
7500.000000	96.721	-141.3446
7620.000000	97.830	-144.3252
7750.000000	99.039	-150.6893
7880.000000	99.994	-161.0486
8000.000000	100.352	-173.6078
8120.000000	100.038	173.1242
8250.000000	99.017	160.8995
8380.000000	97.577	152.4681
8500.000000	96.142	147.8634
8620.000000	94.769	145.5377
8750.000000	93.434	144.7643
8850.000000	92.531	144.9956
9000.000000	91.376	146.1994
9120.000000	90.614	147.6234
9250.000000	89.939	149.4065
9380.000000	89.412	151.2755
9500.000000	89.051	152.9492
9620.000000	88.809	154.4576
9750.000000	88.676	155.7651
9880.000000	88.680	156.5568
10000.000000	88.805	156.6293
10150.000000	89.116	155.4523
10300.000000	89.543	152.2914
10440.000000	89.945	146.9486
10600.000000	90.200	137.6047
10750.000000	90.013	126.2941
10900.000000	89.265	114.3296
11060.000000	87.873	103.2448
11200.000000	86.304	96.1229
11380.000000	84.082	90.5512
11500.000000	82.599	88.6331
11720.000000	80.037	87.6375
11800.000000	79.170	87.8375
12060.000000	76.603	89.7473
12200.000000	75.366	91.2691
12410.000000	73.683	93.8673
12500.000000	73.023	95.0373
12650.000000	72.003	96.9981
12800.000000	71.076	98.9183
13150.000000	69.229	102.9355
13200.000000	68.999	103.4269
13400.000000	68.160	105.0967
13600.000000	67.445	106.1662
13800.000000	66.855	106.5280
14000.000000	66.372	106.1242
14300.000000	65.827	104.1191
14500.000000	65.604	101.9279
14750.000000	65.507	98.2264
15000.000000	65.634	93.4319
15250.000000	66.004	87.5140
15500.000000	66.625	80.3312
15750.000000	67.484	71.6305
16000.000000	68.536	60.9647
16250.000000	69.701	47.8123
16500.000000	70.857	31.5873
16750.000000	71.817	11.9705
17000.000000	72.389	-10.5296
17250.000000	72.473	-34.5371
17500.000000	72.111	-58.5226
17750.000000	71.455	-81.7693
18000.000000	70.664	-104.5280
18250.000000	69.837	-127.5906
18500.000000	69.000	-151.8667
18750.000000	68.121	-178.1651
19000.000000	67.121	152.9185
19250.000000	65.900	121.1380
19500.000000	64.364	87.1678
19750.000000	62.560	55.0341
