* Measurement data measured by REW V5.20.13
* Source: Headset (USB-C to 3.5mm Headphone Jack Adapter), MICROPHONE (Master Volume), L, volume: 0.250
* Format: 256k Log Swept Sine, 1 sweep at -12.0 dBFS with no timing reference
* Dated: 09 30, 24 12:41:03 AM
* REW Settings:
*  C-weighting compensation: Off
*  Target level: 75.0 dB
* Note: ; 
* Measurement: JVC HA-FDX1 50% CP100 L
* Smoothing: 1/24 octave
* Frequency Step: 1/48 octave
* Start Frequency: 20.300 Hz
*
* Freq(Hz)	SPL(dB)	Phase(degrees)
20.299999	93.475	-106.5935
20.600000	93.516	-107.1711
20.900000	93.597	-108.1977
21.200001	93.670	-109.1618
21.400000	93.712	-109.7748
21.799999	93.787	-110.9830
22.000000	93.820	-111.5877
22.400000	93.877	-112.7647
22.700001	93.917	-113.5998
23.000000	93.960	-114.3960
23.299999	94.009	-115.1714
23.600000	94.067	-115.9492
24.000000	94.154	-117.0220
24.299999	94.220	-117.8589
24.700001	94.301	-118.9894
25.000000	94.353	-119.8121
25.400000	94.410	-120.8336
25.799999	94.461	-121.7605
26.200001	94.512	-122.6331
26.500000	94.551	-123.2879
26.900000	94.605	-124.1892
27.200001	94.643	-124.8824
27.600000	94.690	-125.7988
28.000000	94.733	-126.6657
28.500000	94.787	-127.6678
29.000000	94.839	-128.6388
29.500000	94.880	-129.6351
30.000000	94.909	-130.6380
30.400000	94.931	-131.4107
30.700001	94.954	-131.9716
31.100000	94.996	-132.7183
31.500000	95.045	-133.4805
32.000000	95.094	-134.4164
32.500000	95.119	-135.2282
33.000000	95.130	-135.9102
33.500000	95.148	-136.6713
34.000000	95.165	-137.7723
34.500000	95.156	-139.1797
35.000000	95.114	-140.5224
35.500000	95.082	-141.3934
36.000000	95.110	-141.7678
36.500000	95.204	-141.9760
37.000000	95.312	-142.3517
37.500000	95.381	-142.9320
38.200001	95.398	-143.8095
38.700001	95.394	-144.4043
39.500000	95.410	-145.4623
40.000000	95.426	-146.1670
40.599998	95.442	-146.9281
41.200001	95.458	-147.5864
41.799999	95.474	-148.2461
42.500000	95.488	-149.0802
43.099998	95.495	-149.8021
43.700001	95.502	-150.4872
44.400002	95.511	-151.2297
45.000000	95.519	-151.8371
45.500000	95.526	-152.3522
46.200001	95.535	-153.1041
46.799999	95.537	-153.7367
47.500000	95.537	-154.3974
48.200001	95.539	-154.9977
48.700001	95.543	-155.4287
49.400002	95.545	-156.0548
50.000000	95.544	-156.5961
50.799999	95.544	-157.3061
51.500000	95.543	-157.9176
52.200001	95.539	-158.5100
53.000000	95.533	-159.1478
53.799999	95.529	-159.7656
54.500000	95.525	-160.3108
55.200001	95.516	-160.8425
56.000000	95.508	-161.4140
57.000000	95.501	-162.1030
58.000000	95.489	-162.7510
59.000000	95.480	-163.3925
60.000000	95.473	-164.1371
60.799999	95.464	-164.7392
61.500000	95.455	-165.2080
62.200001	95.445	-165.6157
63.000000	95.432	-166.0283
64.000000	95.421	-166.5450
65.000000	95.412	-167.1090
66.000000	95.399	-167.6736
67.000000	95.383	-168.2569
68.000000	95.361	-168.8597
69.000000	95.329	-169.3884
70.000000	95.297	-169.8245
71.000000	95.276	-170.2887
72.000000	95.267	-170.8003
73.000000	95.255	-171.2837
74.000000	95.228	-171.7620
75.000000	95.193	-172.2783
76.199997	95.153	-172.8282
77.500000	95.086	-173.2228
78.800003	95.035	-173.8877
80.000000	95.007	-174.6749
81.199997	94.961	-174.9145
82.500000	94.907	-175.0627
83.800003	94.928	-175.4453
85.000000	94.961	-175.6645
86.199997	94.924	-175.6569
87.500000	94.901	-176.1596
88.500000	94.916	-176.7984
90.000000	94.928	-177.3278
91.199997	94.888	-177.6731
92.500000	94.819	-178.0868
93.800003	94.767	-178.4039
95.000000	94.737	-178.7782
96.199997	94.712	-179.2424
97.500000	94.688	-179.6530
98.800003	94.661	-179.9919
100.000000	94.631	179.7123
101.500000	94.593	179.3801
103.000000	94.556	179.0935
104.400002	94.520	178.8317
106.000000	94.474	178.4717
107.500000	94.435	178.0981
109.000000	94.400	177.7540
110.599998	94.364	177.4283
112.000000	94.327	177.1832
113.800003	94.280	176.9026
115.000000	94.250	176.7045
117.199997	94.194	176.3194
118.000000	94.173	176.1790
120.599998	94.107	175.7479
122.000000	94.073	175.5869
124.099998	94.023	175.3653
125.000000	94.002	175.2560
126.500000	93.968	175.0689
128.000000	93.939	174.8908
131.500000	93.869	174.5051
132.000000	93.858	174.4562
134.000000	93.817	174.2603
136.000000	93.781	174.0524
138.000000	93.747	173.8474
140.000000	93.710	173.6416
143.000000	93.649	173.3865
145.000000	93.606	173.2522
147.500000	93.555	173.0618
150.000000	93.509	172.8653
152.500000	93.462	172.6897
155.000000	93.412	172.5486
157.500000	93.361	172.4335
160.000000	93.310	172.3134
162.500000	93.252	172.1807
165.000000	93.193	172.0768
167.500000	93.133	172.0216
170.000000	93.072	171.9634
172.500000	93.008	171.8856
175.000000	92.947	171.8299
177.500000	92.888	171.7911
180.000000	92.830	171.7313
182.500000	92.771	171.6867
185.000000	92.713	171.6691
187.500000	92.658	171.6615
190.000000	92.606	171.6569
192.500000	92.556	171.6621
195.000000	92.505	171.6718
197.500000	92.452	171.6851
200.000000	92.402	171.6791
203.000000	92.352	171.6885
206.000000	92.309	171.7624
209.000000	92.271	171.8383
212.000000	92.233	171.8786
214.000000	92.205	171.8952
218.000000	92.152	171.9772
220.000000	92.125	172.0219
224.000000	92.080	172.0959
227.000000	92.047	172.1686
230.000000	92.009	172.2448
233.000000	91.971	172.3391
236.000000	91.935	172.4514
240.000000	91.892	172.6007
243.000000	91.860	172.6953
247.000000	91.816	172.8377
250.000000	91.784	172.9604
254.000000	91.738	173.1232
258.000000	91.695	173.2907
262.000000	91.653	173.4687
265.000000	91.622	173.6024
269.000000	91.579	173.7870
272.000000	91.547	173.9272
276.000000	91.507	174.1170
280.000000	91.470	174.3135
285.000000	91.424	174.5695
290.000000	91.378	174.8346
295.000000	91.335	175.0979
300.000000	91.294	175.3677
304.000000	91.263	175.5882
307.000000	91.240	175.7533
311.000000	91.208	175.9793
315.000000	91.178	176.2141
320.000000	91.143	176.5001
325.000000	91.113	176.7823
330.000000	91.083	177.0624
335.000000	91.054	177.3634
340.000000	91.027	177.6728
345.000000	91.001	177.9748
350.000000	90.976	178.2734
355.000000	90.953	178.5716
360.000000	90.930	178.8786
365.000000	90.906	179.1876
370.000000	90.887	179.4998
375.000000	90.870	179.8182
382.000000	90.846	-179.7390
387.000000	90.831	-179.4299
395.000000	90.808	-178.9315
400.000000	90.796	-178.6231
406.000000	90.784	-178.2563
412.000000	90.774	-177.8993
418.000000	90.765	-177.5512
425.000000	90.759	-177.1472
431.000000	90.758	-176.8094
437.000000	90.758	-176.4863
444.000000	90.761	-176.1259
450.000000	90.768	-175.8463
455.000000	90.778	-175.6565
462.000000	90.794	-175.4705
468.000000	90.809	-175.4131
475.000000	90.816	-175.5234
482.000000	90.788	-175.8676
487.000000	90.722	-176.1938
494.000000	90.547	-176.3815
500.000000	90.358	-175.8981
508.000000	90.181	-174.3926
515.000000	90.141	-172.9150
522.000000	90.164	-171.7095
530.000000	90.211	-170.6792
538.000000	90.255	-169.8778
545.000000	90.285	-169.2791
552.000000	90.311	-168.7435
560.000000	90.335	-168.1768
570.000000	90.359	-167.4890
580.000000	90.376	-166.8006
590.000000	90.389	-166.0707
600.000000	90.407	-165.2697
608.000000	90.432	-164.6124
615.000000	90.463	-164.0716
622.000000	90.496	-163.5811
630.000000	90.533	-163.0752
640.000000	90.573	-162.4893
650.000000	90.607	-161.9133
660.000000	90.639	-161.3312
670.000000	90.670	-160.7439
680.000000	90.701	-160.1547
690.000000	90.732	-159.5611
700.000000	90.765	-158.9693
710.000000	90.798	-158.3743
720.000000	90.833	-157.7827
730.000000	90.868	-157.1961
740.000000	90.905	-156.6074
750.000000	90.942	-156.0168
762.000000	90.988	-155.3084
775.000000	91.040	-154.5356
788.000000	91.093	-153.7422
800.000000	91.148	-152.9977
812.000000	91.208	-152.2716
825.000000	91.278	-151.4970
838.000000	91.353	-150.7436
850.000000	91.425	-150.0746
862.000000	91.498	-149.4282
875.000000	91.579	-148.7495
885.000000	91.643	-148.2366
900.000000	91.740	-147.4747
912.000000	91.821	-146.8786
925.000000	91.913	-146.2469
938.000000	92.010	-145.6391
950.000000	92.102	-145.1079
962.000000	92.196	-144.6099
975.000000	92.299	-144.1072
988.000000	92.403	-143.6393
1000.000000	92.500	-143.2337
1015.000000	92.623	-142.7574
1030.000000	92.748	-142.3159
1044.000000	92.863	-141.9348
1060.000000	92.993	-141.5327
1075.000000	93.114	-141.1856
1090.000000	93.234	-140.8676
1106.000000	93.360	-140.5557
1120.000000	93.469	-140.3038
1138.000000	93.606	-140.0113
1150.000000	93.696	-139.8332
1172.000000	93.857	-139.5335
1180.000000	93.915	-139.4335
1206.000000	94.098	-139.1420
1220.000000	94.195	-139.0016
1241.000000	94.337	-138.8101
1250.000000	94.397	-138.7356
1265.000000	94.494	-138.6200
1280.000000	94.590	-138.5143
1315.000000	94.807	-138.3147
1320.000000	94.837	-138.2899
1340.000000	94.955	-138.1951
1360.000000	95.071	-138.1102
1380.000000	95.184	-138.0382
1400.000000	95.295	-137.9733
1430.000000	95.458	-137.8924
1450.000000	95.563	-137.8521
1475.000000	95.693	-137.8088
1500.000000	95.820	-137.7782
1525.000000	95.944	-137.7634
1550.000000	96.065	-137.7553
1575.000000	96.184	-137.7603
1600.000000	96.301	-137.7814
1625.000000	96.414	-137.8110
1650.000000	96.523	-137.8545
1675.000000	96.630	-137.9143
1700.000000	96.735	-137.9827
1725.000000	96.836	-138.0624
1750.000000	96.935	-138.1535
1775.000000	97.031	-138.2465
1800.000000	97.125	-138.3413
1825.000000	97.217	-138.4442
1850.000000	97.307	-138.5533
1875.000000	97.395	-138.6668
1900.000000	97.481	-138.7893
1925.000000	97.565	-138.9184
1950.000000	97.647	-139.0490
1975.000000	97.727	-139.1835
2000.000000	97.805	-139.3261
2030.000000	97.895	-139.5008
2060.000000	97.983	-139.6750
2090.000000	98.068	-139.8557
2120.000000	98.150	-140.0446
2140.000000	98.203	-140.1719
2180.000000	98.302	-140.4249
2200.000000	98.349	-140.5473
2240.000000	98.435	-140.7565
2270.000000	98.495	-140.8558
2300.000000	98.557	-140.8848
2330.000000	98.630	-140.8447
2360.000000	98.720	-140.7819
2400.000000	98.868	-140.8106
2430.000000	98.988	-140.9937
2470.000000	99.136	-141.4306
2500.000000	99.233	-141.8430
2540.000000	99.343	-142.4295
2580.000000	99.437	-143.0056
2620.000000	99.519	-143.5532
2650.000000	99.575	-143.9455
2690.000000	99.644	-144.4419
2720.000000	99.693	-144.7941
2760.000000	99.755	-145.2435
2800.000000	99.814	-145.6735
2850.000000	99.887	-146.1811
2900.000000	99.957	-146.6634
2950.000000	100.027	-147.1268
3000.000000	100.098	-147.5732
3040.000000	100.156	-147.9240
3070.000000	100.201	-148.1852
3110.000000	100.260	-148.5310
3150.000000	100.318	-148.8782
3200.000000	100.387	-149.3246
3250.000000	100.457	-149.7924
3300.000000	100.531	-150.2879
3350.000000	100.610	-150.8245
3400.000000	100.694	-151.4111
3450.000000	100.781	-152.0571
3500.000000	100.873	-152.7757
3550.000000	100.969	-153.5754
3600.000000	101.068	-154.4676
3650.000000	101.169	-155.4754
3700.000000	101.269	-156.6227
3750.000000	101.364	-157.9248
3820.000000	101.478	-160.0182
3870.000000	101.537	-161.6905
3950.000000	101.581	-164.5628
4000.000000	101.581	-166.4229
4060.000000	101.562	-168.7215
4120.000000	101.521	-171.1462
4180.000000	101.447	-173.7435
4250.000000	101.301	-176.9794
4310.000000	101.108	-179.8451
4370.000000	100.843	177.3350
4440.000000	100.443	174.3083
4500.000000	100.036	172.1042
4550.000000	99.668	170.6023
4620.000000	99.138	168.9828
4680.000000	98.686	167.9561
4750.000000	98.165	167.0738
4820.000000	97.651	166.4632
4870.000000	97.286	166.1760
4940.000000	96.778	165.9838
5000.000000	96.346	166.0209
5080.000000	95.777	166.3503
5150.000000	95.291	166.8807
5220.000000	94.819	167.6125
5300.000000	94.300	168.6686
5380.000000	93.803	169.9409
5450.000000	93.386	171.2214
5520.000000	92.988	172.6458
5600.000000	92.558	174.4430
5700.000000	92.064	176.9043
5800.000000	91.619	179.5359
5900.000000	91.217	-177.7037
6000.000000	90.854	-174.8115
6080.000000	90.593	-172.3872
6150.000000	90.390	-170.1745
6220.000000	90.219	-167.8774
6300.000000	90.074	-165.2107
6400.000000	89.969	-162.0386
6500.000000	89.905	-159.1082
6600.000000	89.867	-156.2787
6700.000000	89.858	-153.4986
6800.000000	89.879	-150.7636
6900.000000	89.935	-148.0175
7000.000000	90.042	-145.2278
7100.000000	90.225	-142.5063
7200.000000	90.482	-140.0229
7300.000000	90.804	-137.8796
7400.000000	91.188	-136.1555
7500.000000	91.627	-134.9683
7620.000000	92.200	-134.4230
7750.000000	92.832	-135.0768
7880.000000	93.408	-137.0802
8000.000000	93.817	-140.0066
8120.000000	94.052	-143.6637
8250.000000	94.102	-147.9530
8380.000000	93.962	-152.0386
8500.000000	93.705	-155.2690
8620.000000	93.374	-157.8228
8750.000000	92.982	-159.8069
8850.000000	92.686	-160.8413
9000.000000	92.290	-161.7812
9120.000000	92.030	-162.1801
9250.000000	91.814	-162.4361
9380.000000	91.668	-162.6571
9500.000000	91.590	-162.9391
9620.000000	91.561	-163.3797
9750.000000	91.576	-164.1138
9880.000000	91.632	-165.1794
10000.000000	91.712	-166.4976
10150.000000	91.839	-168.6350
10300.000000	91.973	-171.3310
10440.000000	92.082	-174.3361
10600.000000	92.170	-178.2974
10750.000000	92.205	177.5574
10900.000000	92.187	173.0917
11060.000000	92.109	168.0734
11200.000000	91.994	163.5247
11380.000000	91.789	157.5120
11500.000000	91.621	153.4110
11720.000000	91.258	145.6632
11800.000000	91.109	142.7484
12060.000000	90.549	132.7841
12200.000000	90.183	127.0720
12410.000000	89.517	118.1189
12500.000000	89.184	114.2034
12650.000000	88.561	107.7028
12800.000000	87.848	101.3961
13150.000000	85.890	88.2670
13200.000000	85.588	86.6095
13400.000000	84.357	80.5002
13600.000000	83.119	75.1312
13800.000000	81.899	70.3847
14000.000000	80.722	66.1368
14300.000000	79.082	60.3535
14500.000000	78.091	56.6456
14750.000000	76.976	51.9225
15000.000000	75.997	46.8801
15250.000000	75.158	41.3262
15500.000000	74.459	35.0802
15750.000000	73.894	27.9886
16000.000000	73.447	19.9534
16250.000000	73.116	10.9177
16500.000000	72.935	0.7751
16750.000000	72.936	-10.6852
17000.000000	73.141	-23.7702
17250.000000	73.555	-38.9015
17500.000000	74.160	-56.6115
17750.000000	74.902	-77.5920
18000.000000	75.633	-102.6117
18250.000000	76.142	-131.7286
18500.000000	76.317	-164.0833
18750.000000	76.149	161.0959
19000.000000	75.656	124.2185
19250.000000	74.861	85.4025
19500.000000	73.776	45.1602
19750.000000	72.492	7.5452
