* Measurement data measured by REW V5.20.13
* Source: Headset (USB-C to 3.5mm Headphone Jack Adapter), MICROPHONE (Master Volume), L, volume: 0.250
* Format: 256k Log Swept Sine, 1 sweep at -12.0 dBFS with no timing reference
* Dated: 09 30, 24 12:39:22 AM
* REW Settings:
*  C-weighting compensation: Off
*  Target level: 75.0 dB
* Note: ; 
* Measurement: JVC HA-FDX1 50% CP100 R
* Smoothing: 1/24 octave
* Frequency Step: 1/48 octave
* Start Frequency: 20.300 Hz
*
* Freq(Hz)	SPL(dB)	Phase(degrees)
20.299999	92.208	-104.7710
20.600000	92.244	-105.3057
20.900000	92.317	-106.2559
21.200001	92.387	-107.1521
21.400000	92.432	-107.7336
21.799999	92.520	-108.9249
22.000000	92.563	-109.5479
22.400000	92.640	-110.8115
22.700001	92.691	-111.7312
23.000000	92.738	-112.5940
23.299999	92.786	-113.3864
23.600000	92.837	-114.1160
24.000000	92.914	-115.0265
24.299999	92.977	-115.6997
24.700001	93.061	-116.6202
25.000000	93.119	-117.3335
25.400000	93.188	-118.3012
25.799999	93.247	-119.2620
26.200001	93.302	-120.2043
26.500000	93.344	-120.9025
26.900000	93.401	-121.8284
27.200001	93.444	-122.5141
27.600000	93.498	-123.3957
28.000000	93.547	-124.2113
28.500000	93.604	-125.1337
29.000000	93.658	-126.0207
29.500000	93.704	-126.9547
30.000000	93.741	-127.9312
30.400000	93.770	-128.6906
30.700001	93.797	-129.2303
31.100000	93.844	-129.9260
31.500000	93.896	-130.6265
32.000000	93.945	-131.5150
32.500000	93.961	-132.3333
33.000000	93.962	-133.0368
33.500000	93.985	-133.8018
34.000000	94.040	-134.9380
34.500000	94.090	-136.4926
35.000000	94.099	-138.0732
35.500000	94.077	-139.1049
36.000000	94.079	-139.3917
36.500000	94.138	-139.2728
37.000000	94.226	-139.2825
37.500000	94.290	-139.6509
38.200001	94.302	-140.5247
38.700001	94.293	-141.1830
39.500000	94.315	-142.2551
40.000000	94.342	-142.9250
40.599998	94.371	-143.6291
41.200001	94.394	-144.2237
41.799999	94.414	-144.8280
42.500000	94.432	-145.6192
43.099998	94.446	-146.3155
43.700001	94.463	-146.9879
44.400002	94.481	-147.7268
45.000000	94.490	-148.2936
45.500000	94.497	-148.7190
46.200001	94.509	-149.3017
46.799999	94.522	-149.8378
47.500000	94.534	-150.4942
48.200001	94.544	-151.1450
48.700001	94.551	-151.6014
49.400002	94.559	-152.2321
50.000000	94.560	-152.7568
50.799999	94.557	-153.4280
51.500000	94.559	-154.0330
52.200001	94.568	-154.7005
53.000000	94.574	-155.4661
53.799999	94.574	-156.0707
54.500000	94.576	-156.4776
55.200001	94.580	-156.8987
56.000000	94.580	-157.4446
57.000000	94.582	-158.1128
58.000000	94.590	-158.7713
59.000000	94.585	-159.4764
60.000000	94.569	-160.1983
60.799999	94.561	-160.7266
61.500000	94.563	-161.1168
62.200001	94.571	-161.4731
63.000000	94.575	-161.9021
64.000000	94.561	-162.4658
65.000000	94.543	-162.9976
66.000000	94.532	-163.5108
67.000000	94.527	-164.0275
68.000000	94.525	-164.5763
69.000000	94.517	-165.1384
70.000000	94.494	-165.5962
71.000000	94.471	-166.0056
72.000000	94.460	-166.5052
73.000000	94.462	-167.0179
74.000000	94.466	-167.4343
75.000000	94.453	-167.8391
76.199997	94.421	-168.5124
77.500000	94.389	-169.3524
78.800003	94.325	-169.9578
80.000000	94.266	-170.0526
81.199997	94.286	-170.1865
82.500000	94.312	-170.8285
83.800003	94.292	-171.7753
85.000000	94.290	-172.2458
86.199997	94.327	-172.2986
87.500000	94.305	-172.5008
88.500000	94.268	-172.8481
90.000000	94.233	-173.5944
91.199997	94.193	-173.9156
92.500000	94.161	-174.0795
93.800003	94.140	-174.3689
95.000000	94.121	-174.6884
96.199997	94.097	-175.0047
97.500000	94.069	-175.3398
98.800003	94.041	-175.6760
100.000000	94.018	-175.9790
101.500000	93.991	-176.3386
103.000000	93.965	-176.6780
104.400002	93.938	-176.9668
106.000000	93.900	-177.2892
107.500000	93.862	-177.5925
109.000000	93.829	-177.8981
110.599998	93.799	-178.2408
112.000000	93.771	-178.5386
113.800003	93.733	-178.8615
115.000000	93.708	-179.0501
117.199997	93.665	-179.4183
118.000000	93.648	-179.5584
120.599998	93.599	-179.9681
122.000000	93.573	179.8309
124.099998	93.533	179.5148
125.000000	93.517	179.3773
126.500000	93.490	179.1694
128.000000	93.461	178.9778
131.500000	93.404	178.4911
132.000000	93.396	178.4225
134.000000	93.362	178.1691
136.000000	93.325	177.9440
138.000000	93.288	177.7223
140.000000	93.252	177.5186
143.000000	93.192	177.1971
145.000000	93.154	176.9870
147.500000	93.116	176.7716
150.000000	93.079	176.5765
152.500000	93.038	176.3704
155.000000	92.989	176.1732
157.500000	92.937	176.0165
160.000000	92.882	175.9006
162.500000	92.821	175.7968
165.000000	92.754	175.6415
167.500000	92.689	175.4863
170.000000	92.629	175.3873
172.500000	92.573	175.3106
175.000000	92.515	175.2180
177.500000	92.453	175.1419
180.000000	92.393	175.0818
182.500000	92.336	175.0180
185.000000	92.279	174.9645
187.500000	92.224	174.9290
190.000000	92.168	174.9173
192.500000	92.109	174.9091
195.000000	92.049	174.8880
197.500000	91.994	174.8732
200.000000	91.947	174.8819
203.000000	91.894	174.9312
206.000000	91.846	174.9553
209.000000	91.805	174.9413
212.000000	91.762	174.9567
214.000000	91.732	174.9816
218.000000	91.673	175.0678
220.000000	91.643	175.1169
224.000000	91.585	175.2044
227.000000	91.544	175.2776
230.000000	91.504	175.3722
233.000000	91.464	175.4654
236.000000	91.425	175.5497
240.000000	91.377	175.6831
243.000000	91.340	175.7967
247.000000	91.287	175.9587
250.000000	91.244	176.0912
254.000000	91.189	176.2610
258.000000	91.136	176.4583
262.000000	91.086	176.6639
265.000000	91.047	176.8040
269.000000	90.998	177.0038
272.000000	90.964	177.1842
276.000000	90.915	177.4380
280.000000	90.863	177.6635
285.000000	90.807	177.9256
290.000000	90.754	178.2066
295.000000	90.701	178.5387
300.000000	90.652	178.8707
304.000000	90.612	179.1160
307.000000	90.579	179.2999
311.000000	90.535	179.5667
315.000000	90.494	179.8646
320.000000	90.450	-179.7536
325.000000	90.411	-179.3852
330.000000	90.371	-179.0320
335.000000	90.330	-178.6979
340.000000	90.295	-178.3779
345.000000	90.263	-178.0321
350.000000	90.232	-177.6428
355.000000	90.196	-177.2329
360.000000	90.162	-176.8318
365.000000	90.132	-176.4423
370.000000	90.104	-176.0514
375.000000	90.075	-175.6549
382.000000	90.036	-175.0979
387.000000	90.011	-174.7020
395.000000	89.973	-174.0654
400.000000	89.953	-173.6645
406.000000	89.930	-173.1802
412.000000	89.906	-172.6793
418.000000	89.882	-172.1790
425.000000	89.860	-171.6072
431.000000	89.846	-171.1234
437.000000	89.832	-170.6246
444.000000	89.812	-170.0233
450.000000	89.795	-169.5276
455.000000	89.781	-169.1315
462.000000	89.769	-168.5798
468.000000	89.761	-168.0863
475.000000	89.750	-167.5106
482.000000	89.741	-166.9336
487.000000	89.737	-166.5159
494.000000	89.732	-165.9349
500.000000	89.729	-165.4439
508.000000	89.727	-164.7765
515.000000	89.726	-164.1781
522.000000	89.726	-163.5779
530.000000	89.726	-162.8927
538.000000	89.729	-162.1990
545.000000	89.739	-161.5808
552.000000	89.760	-160.9576
560.000000	89.801	-160.2773
570.000000	89.863	-159.6635
580.000000	89.879	-159.3513
590.000000	89.831	-158.7798
600.000000	89.802	-157.7785
608.000000	89.818	-156.9593
615.000000	89.843	-156.3163
622.000000	89.870	-155.7309
630.000000	89.900	-155.1076
640.000000	89.937	-154.3564
650.000000	89.972	-153.6095
660.000000	90.007	-152.8667
670.000000	90.045	-152.1319
680.000000	90.082	-151.4106
690.000000	90.122	-150.6860
700.000000	90.163	-149.9607
710.000000	90.207	-149.2368
720.000000	90.252	-148.5144
730.000000	90.301	-147.8011
740.000000	90.352	-147.0992
750.000000	90.405	-146.4098
762.000000	90.474	-145.5985
775.000000	90.551	-144.7358
788.000000	90.630	-143.8982
800.000000	90.706	-143.1441
812.000000	90.782	-142.4068
825.000000	90.865	-141.6282
838.000000	90.951	-140.8694
850.000000	91.032	-140.1832
862.000000	91.114	-139.5081
875.000000	91.205	-138.7924
885.000000	91.277	-138.2502
900.000000	91.386	-137.4440
912.000000	91.479	-136.8143
925.000000	91.583	-136.1549
938.000000	91.691	-135.5310
950.000000	91.792	-134.9924
962.000000	91.896	-134.4825
975.000000	92.009	-133.9591
988.000000	92.123	-133.4669
1000.000000	92.230	-133.0400
1015.000000	92.365	-132.5432
1030.000000	92.502	-132.0868
1044.000000	92.628	-131.6958
1060.000000	92.772	-131.2858
1075.000000	92.905	-130.9370
1090.000000	93.035	-130.6228
1106.000000	93.173	-130.3168
1120.000000	93.292	-130.0722
1138.000000	93.441	-129.7953
1150.000000	93.539	-129.6288
1172.000000	93.714	-129.3547
1180.000000	93.776	-129.2668
1206.000000	93.973	-129.0187
1220.000000	94.077	-128.8994
1241.000000	94.227	-128.7444
1250.000000	94.290	-128.6880
1265.000000	94.393	-128.6017
1280.000000	94.494	-128.5227
1315.000000	94.720	-128.3770
1320.000000	94.752	-128.3591
1340.000000	94.875	-128.2905
1360.000000	94.996	-128.2345
1380.000000	95.114	-128.1952
1400.000000	95.228	-128.1625
1430.000000	95.394	-128.1258
1450.000000	95.502	-128.1123
1475.000000	95.633	-128.1001
1500.000000	95.761	-128.0976
1525.000000	95.885	-128.1006
1550.000000	96.006	-128.1029
1575.000000	96.126	-128.1153
1600.000000	96.241	-128.1328
1625.000000	96.354	-128.1507
1650.000000	96.465	-128.1780
1675.000000	96.574	-128.2132
1700.000000	96.681	-128.2517
1725.000000	96.788	-128.3010
1750.000000	96.894	-128.3620
1775.000000	96.997	-128.4309
1800.000000	97.099	-128.5118
1825.000000	97.200	-128.6050
1850.000000	97.299	-128.7039
1875.000000	97.397	-128.8111
1900.000000	97.494	-128.9324
1925.000000	97.590	-129.0673
1950.000000	97.684	-129.2148
1975.000000	97.776	-129.3771
2000.000000	97.866	-129.5535
2030.000000	97.970	-129.7785
2060.000000	98.070	-130.0177
2090.000000	98.167	-130.2742
2120.000000	98.259	-130.5409
2140.000000	98.318	-130.7219
2180.000000	98.428	-131.0909
2200.000000	98.479	-131.2748
2240.000000	98.573	-131.6188
2270.000000	98.637	-131.8373
2300.000000	98.697	-131.9990
2330.000000	98.759	-132.0800
2360.000000	98.831	-132.0826
2400.000000	98.955	-132.0611
2430.000000	99.070	-132.1344
2470.000000	99.231	-132.4450
2500.000000	99.344	-132.8223
2540.000000	99.476	-133.4278
2580.000000	99.587	-134.0601
2620.000000	99.684	-134.6774
2650.000000	99.751	-135.1246
2690.000000	99.833	-135.6965
2720.000000	99.891	-136.1097
2760.000000	99.966	-136.6463
2800.000000	100.039	-137.1707
2850.000000	100.125	-137.8089
2900.000000	100.208	-138.4362
2950.000000	100.287	-139.0363
3000.000000	100.366	-139.5896
3040.000000	100.436	-140.0198
3070.000000	100.491	-140.3543
3110.000000	100.565	-140.8264
3150.000000	100.636	-141.3280
3200.000000	100.719	-141.9887
3250.000000	100.797	-142.6775
3300.000000	100.876	-143.3956
3350.000000	100.958	-144.1575
3400.000000	101.042	-144.9704
3450.000000	101.129	-145.8443
3500.000000	101.218	-146.7927
3550.000000	101.308	-147.8250
3600.000000	101.398	-148.9520
3650.000000	101.487	-150.1922
3700.000000	101.572	-151.5641
3750.000000	101.649	-153.0808
3820.000000	101.734	-155.4594
3870.000000	101.770	-157.3315
3950.000000	101.767	-160.5236
4000.000000	101.728	-162.5554
4060.000000	101.650	-164.9638
4120.000000	101.549	-167.3544
4180.000000	101.428	-169.8001
4250.000000	101.247	-172.7852
4310.000000	101.040	-175.4265
4370.000000	100.775	-178.0561
4440.000000	100.384	179.0579
4500.000000	99.987	176.9039
4550.000000	99.623	175.4190
4620.000000	99.094	173.8372
4680.000000	98.643	172.8769
4750.000000	98.131	172.0892
4820.000000	97.633	171.5551
4870.000000	97.284	171.3017
4940.000000	96.801	171.1193
5000.000000	96.391	171.1241
5080.000000	95.850	171.3582
5150.000000	95.386	171.7743
5220.000000	94.932	172.3818
5300.000000	94.431	173.2957
5380.000000	93.951	174.4216
5450.000000	93.550	175.5638
5520.000000	93.167	176.8358
5600.000000	92.753	178.4254
5700.000000	92.271	-179.4156
5800.000000	91.825	-177.0862
5900.000000	91.417	-174.5964
6000.000000	91.044	-171.9422
6080.000000	90.777	-169.7021
6150.000000	90.568	-167.6711
6220.000000	90.384	-165.5917
6300.000000	90.207	-163.1714
6400.000000	90.036	-160.0707
6500.000000	89.933	-156.9114
6600.000000	89.893	-153.8605
6700.000000	89.897	-150.9223
6800.000000	89.946	-148.1002
6900.000000	90.031	-145.3838
7000.000000	90.156	-142.6665
7100.000000	90.352	-139.8851
7200.000000	90.659	-137.2068
7300.000000	91.086	-135.0897
7400.000000	91.568	-133.9100
7500.000000	92.039	-133.5478
7620.000000	92.587	-133.8228
7750.000000	93.167	-135.0862
7880.000000	93.684	-137.4474
8000.000000	94.051	-140.5553
8120.000000	94.257	-144.3454
8250.000000	94.282	-148.7746
8380.000000	94.119	-152.9945
8500.000000	93.839	-156.3204
8620.000000	93.484	-158.9117
8750.000000	93.072	-160.8680
8850.000000	92.768	-161.8406
9000.000000	92.370	-162.6301
9120.000000	92.123	-162.8670
9250.000000	91.939	-162.9261
9380.000000	91.843	-162.9602
9500.000000	91.830	-163.1019
9620.000000	91.883	-163.4580
9750.000000	92.007	-164.2054
9880.000000	92.187	-165.4429
10000.000000	92.391	-167.1027
10150.000000	92.667	-169.9421
10300.000000	92.927	-173.6324
10440.000000	93.119	-177.7673
10600.000000	93.248	176.8788
10750.000000	93.265	171.4917
10900.000000	93.184	166.0042
11060.000000	93.008	160.2746
11200.000000	92.805	155.4721
11380.000000	92.521	149.5719
11500.000000	92.336	145.7270
11720.000000	92.034	138.5468
11800.000000	91.937	135.7977
12060.000000	91.636	125.8862
12200.000000	91.445	119.7437
12410.000000	91.039	109.4036
12500.000000	90.802	104.6202
12650.000000	90.294	96.3791
12800.000000	89.628	88.1325
13150.000000	87.503	70.8505
13200.000000	87.152	68.7188
13400.000000	85.686	61.1005
13600.000000	84.185	54.8157
13800.000000	82.712	49.5937
14000.000000	81.303	45.1392
14300.000000	79.356	39.3456
14500.000000	78.183	35.7646
14750.000000	76.862	31.2895
15000.000000	75.701	26.5778
15250.000000	74.702	21.4558
15500.000000	73.874	15.7582
15750.000000	73.234	9.2897
16000.000000	72.783	1.7582
16250.000000	72.508	-7.0853
16500.000000	72.419	-17.4565
16750.000000	72.516	-29.5479
17000.000000	72.789	-43.4589
17250.000000	73.251	-59.3156
17500.000000	73.909	-77.4946
17750.000000	74.728	-98.5604
18000.000000	75.621	-123.1171
18250.000000	76.466	-151.6449
18500.000000	77.104	175.5378
18750.000000	77.366	138.7735
19000.000000	77.169	99.0203
19250.000000	76.510	57.1888
19500.000000	75.428	14.4142
19750.000000	74.074	-24.9731
