* Measurement data measured by REW V5.20.13
* Source: Headset (USB-C to 3.5mm Headphone Jack Adapter), MICROPHONE (Master Volume), L, volume: 0.250
* Format: 256k Log Swept Sine, 1 sweep at -12.0 dBFS with no timing reference
* Dated: 09 30, 24 12:48:50 AM
* REW Settings:
*  C-weighting compensation: Off
*  Target level: 75.0 dB
* Note: ; 
* Measurement: JVC HA-FXZ200 CP100 R
* Smoothing: 1/24 octave
* Frequency Step: 1/48 octave
* Start Frequency: 20.300 Hz
*
* Freq(Hz)	SPL(dB)	Phase(degrees)
20.299999	91.854	-63.9266
20.600000	91.943	-64.5836
20.900000	92.119	-65.7456
21.200001	92.277	-66.8132
21.400000	92.376	-67.4600
21.799999	92.572	-68.6556
22.000000	92.673	-69.2275
22.400000	92.881	-70.3432
22.700001	93.039	-71.1902
23.000000	93.191	-72.0776
23.299999	93.332	-73.0035
23.600000	93.459	-73.9483
24.000000	93.608	-75.1926
24.299999	93.710	-76.0826
24.700001	93.842	-77.1992
25.000000	93.944	-77.9994
25.400000	94.088	-79.0533
25.799999	94.236	-80.1284
26.200001	94.381	-81.2326
26.500000	94.486	-82.0671
26.900000	94.620	-83.1649
27.200001	94.718	-83.9630
27.600000	94.847	-84.9846
28.000000	94.978	-85.9609
28.500000	95.141	-87.1363
29.000000	95.296	-88.2845
29.500000	95.437	-89.4191
30.000000	95.566	-90.5538
30.400000	95.666	-91.4784
30.700001	95.743	-92.1889
31.100000	95.846	-93.1507
31.500000	95.951	-94.0921
32.000000	96.081	-95.1563
32.500000	96.215	-96.0610
33.000000	96.350	-96.9331
33.500000	96.467	-97.9827
34.000000	96.538	-99.2936
34.500000	96.554	-100.6815
35.000000	96.552	-101.8625
35.500000	96.598	-102.7207
36.000000	96.726	-103.4283
36.500000	96.909	-104.2252
37.000000	97.084	-105.1720
37.500000	97.212	-106.1350
38.200001	97.326	-107.3048
38.700001	97.393	-108.0789
39.500000	97.508	-109.4648
40.000000	97.582	-110.3846
40.599998	97.671	-111.4249
41.200001	97.762	-112.3805
41.799999	97.848	-113.3136
42.500000	97.937	-114.4184
43.099998	98.008	-115.3736
43.700001	98.081	-116.3288
44.400002	98.166	-117.4218
45.000000	98.234	-118.3113
45.500000	98.288	-119.0173
46.200001	98.364	-119.9895
46.799999	98.429	-120.8424
47.500000	98.498	-121.8531
48.200001	98.563	-122.8391
48.700001	98.607	-123.5181
49.400002	98.668	-124.4463
50.000000	98.718	-125.2341
50.799999	98.782	-126.2804
51.500000	98.838	-127.1926
52.200001	98.890	-128.0893
53.000000	98.948	-129.0727
53.799999	99.003	-130.0160
54.500000	99.052	-130.8335
55.200001	99.103	-131.6627
56.000000	99.159	-132.6185
57.000000	99.217	-133.7377
58.000000	99.266	-134.7373
59.000000	99.318	-135.7838
60.000000	99.362	-136.9140
60.799999	99.394	-137.7840
61.500000	99.423	-138.5135
62.200001	99.452	-139.2349
63.000000	99.482	-140.0335
64.000000	99.522	-140.9594
65.000000	99.561	-141.8634
66.000000	99.587	-142.7775
67.000000	99.611	-143.6768
68.000000	99.646	-144.6085
69.000000	99.675	-145.5507
70.000000	99.691	-146.4084
71.000000	99.708	-147.2325
72.000000	99.731	-148.1234
73.000000	99.753	-149.0286
74.000000	99.774	-149.8545
75.000000	99.790	-150.5961
76.199997	99.797	-151.4235
77.500000	99.803	-152.4445
78.800003	99.815	-153.7058
80.000000	99.827	-154.7297
81.199997	99.844	-155.4429
82.500000	99.858	-156.1739
83.800003	99.851	-156.9951
85.000000	99.824	-157.7798
86.199997	99.792	-158.4654
87.500000	99.826	-159.2362
88.500000	99.896	-160.0002
90.000000	99.985	-161.1701
91.199997	99.977	-161.9664
92.500000	99.920	-162.6287
93.800003	99.887	-163.2938
95.000000	99.877	-163.9710
96.199997	99.869	-164.6688
97.500000	99.857	-165.4318
98.800003	99.846	-166.1705
100.000000	99.835	-166.8221
101.500000	99.818	-167.6182
103.000000	99.799	-168.3961
104.400002	99.783	-169.0946
106.000000	99.763	-169.8727
107.500000	99.743	-170.6280
109.000000	99.723	-171.3691
110.599998	99.700	-172.1193
112.000000	99.677	-172.7654
113.800003	99.645	-173.5764
115.000000	99.623	-174.1088
117.199997	99.586	-175.0699
118.000000	99.573	-175.4050
120.599998	99.528	-176.4760
122.000000	99.498	-177.0430
124.099998	99.453	-177.8601
125.000000	99.434	-178.2020
126.500000	99.406	-178.7671
128.000000	99.379	-179.3284
131.500000	99.310	179.4094
132.000000	99.300	179.2312
134.000000	99.259	178.5362
136.000000	99.219	177.8633
138.000000	99.175	177.2133
140.000000	99.132	176.6051
143.000000	99.065	175.6711
145.000000	99.017	175.0881
147.500000	98.960	174.3806
150.000000	98.901	173.6818
152.500000	98.840	173.0174
155.000000	98.778	172.3858
157.500000	98.719	171.7438
160.000000	98.650	171.1124
162.500000	98.573	170.5047
165.000000	98.493	169.9355
167.500000	98.410	169.3883
170.000000	98.327	168.8498
172.500000	98.246	168.3288
175.000000	98.164	167.8272
177.500000	98.082	167.3463
180.000000	97.999	166.8865
182.500000	97.914	166.4333
185.000000	97.830	165.9893
187.500000	97.745	165.5631
190.000000	97.661	165.1579
192.500000	97.578	164.7650
195.000000	97.495	164.3911
197.500000	97.413	164.0314
200.000000	97.335	163.6871
203.000000	97.249	163.2973
206.000000	97.167	162.9077
209.000000	97.085	162.5157
212.000000	97.001	162.1581
214.000000	96.945	161.9476
218.000000	96.836	161.5466
220.000000	96.781	161.3502
224.000000	96.672	160.9773
227.000000	96.592	160.7089
230.000000	96.513	160.4502
233.000000	96.434	160.2175
236.000000	96.354	160.0107
240.000000	96.247	159.7560
243.000000	96.168	159.5880
247.000000	96.062	159.3620
250.000000	95.980	159.1856
254.000000	95.867	158.9656
258.000000	95.755	158.7692
262.000000	95.646	158.6017
265.000000	95.564	158.5042
269.000000	95.454	158.3833
272.000000	95.374	158.3015
276.000000	95.269	158.2280
280.000000	95.165	158.1851
285.000000	95.034	158.1356
290.000000	94.903	158.0962
295.000000	94.775	158.0677
300.000000	94.650	158.0844
304.000000	94.551	158.1184
307.000000	94.476	158.1426
311.000000	94.378	158.1880
315.000000	94.283	158.2568
320.000000	94.166	158.3677
325.000000	94.052	158.4990
330.000000	93.939	158.6434
335.000000	93.828	158.7953
340.000000	93.719	158.9601
345.000000	93.612	159.1451
350.000000	93.504	159.3578
355.000000	93.402	159.5930
360.000000	93.301	159.8343
365.000000	93.202	160.0798
370.000000	93.105	160.3377
375.000000	93.011	160.6109
382.000000	92.882	161.0175
387.000000	92.792	161.3134
395.000000	92.650	161.7762
400.000000	92.562	162.0729
406.000000	92.464	162.4566
412.000000	92.373	162.8780
418.000000	92.279	163.3496
425.000000	92.158	163.8566
431.000000	92.069	164.2757
437.000000	91.981	164.7479
444.000000	91.881	165.2859
450.000000	91.799	165.7554
455.000000	91.732	166.1444
462.000000	91.638	166.6921
468.000000	91.561	167.1813
475.000000	91.474	167.7686
482.000000	91.391	168.3615
487.000000	91.333	168.7885
494.000000	91.253	169.3904
500.000000	91.187	169.9063
508.000000	91.101	170.5995
515.000000	91.030	171.2167
522.000000	90.961	171.8363
530.000000	90.884	172.5361
538.000000	90.805	173.2744
545.000000	90.743	173.9654
552.000000	90.689	174.6289
560.000000	90.627	175.3604
570.000000	90.548	176.2618
580.000000	90.473	177.1603
590.000000	90.402	178.0865
600.000000	90.334	179.0258
608.000000	90.283	179.7766
615.000000	90.241	-179.5604
622.000000	90.201	-178.8942
630.000000	90.157	-178.1315
640.000000	90.104	-177.1750
650.000000	90.052	-176.2080
660.000000	90.003	-175.2252
670.000000	89.959	-174.2312
680.000000	89.920	-173.2307
690.000000	89.884	-172.2294
700.000000	89.853	-171.2393
710.000000	89.828	-170.2620
720.000000	89.809	-169.2799
730.000000	89.792	-168.2625
740.000000	89.776	-167.2465
750.000000	89.764	-166.2475
762.000000	89.756	-165.0568
775.000000	89.753	-163.7698
788.000000	89.757	-162.4938
800.000000	89.764	-161.3230
812.000000	89.776	-160.1544
825.000000	89.794	-158.9010
838.000000	89.820	-157.6584
850.000000	89.850	-156.5276
862.000000	89.884	-155.4071
875.000000	89.927	-154.2095
885.000000	89.965	-153.3013
900.000000	90.027	-151.9732
912.000000	90.083	-150.9431
925.000000	90.149	-149.8592
938.000000	90.219	-148.8101
950.000000	90.289	-147.8791
962.000000	90.360	-146.9945
975.000000	90.439	-146.0903
988.000000	90.514	-145.2357
1000.000000	90.581	-144.4640
1015.000000	90.664	-143.4742
1030.000000	90.754	-142.4511
1044.000000	90.847	-141.5007
1060.000000	90.962	-140.4658
1075.000000	91.076	-139.5658
1090.000000	91.191	-138.7299
1106.000000	91.314	-137.8999
1120.000000	91.419	-137.2100
1138.000000	91.554	-136.3734
1150.000000	91.641	-135.8635
1172.000000	91.797	-135.0019
1180.000000	91.851	-134.7047
1206.000000	92.018	-133.7893
1220.000000	92.100	-133.3194
1241.000000	92.211	-132.6191
1250.000000	92.255	-132.3079
1265.000000	92.323	-131.7452
1280.000000	92.389	-131.1236
1315.000000	92.561	-129.5224
1320.000000	92.589	-129.2879
1340.000000	92.707	-128.3650
1360.000000	92.832	-127.4812
1380.000000	92.960	-126.6350
1400.000000	93.091	-125.8123
1430.000000	93.294	-124.6230
1450.000000	93.433	-123.8688
1475.000000	93.610	-122.9614
1500.000000	93.790	-122.0960
1525.000000	93.973	-121.2798
1550.000000	94.159	-120.5088
1575.000000	94.346	-119.7936
1600.000000	94.534	-119.1420
1625.000000	94.718	-118.5554
1650.000000	94.894	-118.0376
1675.000000	95.058	-117.5595
1700.000000	95.205	-117.0498
1725.000000	95.343	-116.4299
1750.000000	95.488	-115.6625
1775.000000	95.653	-114.7859
1800.000000	95.845	-113.8930
1825.000000	96.060	-113.0667
1850.000000	96.292	-112.3430
1875.000000	96.533	-111.7251
1900.000000	96.780	-111.2130
1925.000000	97.030	-110.7948
1950.000000	97.284	-110.4577
1975.000000	97.539	-110.2018
2000.000000	97.797	-110.0289
2030.000000	98.109	-109.9291
2060.000000	98.421	-109.9494
2090.000000	98.734	-110.0962
2120.000000	99.045	-110.3717
2140.000000	99.251	-110.6258
2180.000000	99.658	-111.3029
2200.000000	99.857	-111.7271
2240.000000	100.246	-112.7421
2270.000000	100.527	-113.6413
2300.000000	100.799	-114.6533
2330.000000	101.064	-115.7771
2360.000000	101.322	-117.0298
2400.000000	101.652	-118.9780
2430.000000	101.876	-120.6894
2470.000000	102.121	-123.2643
2500.000000	102.255	-125.3381
2540.000000	102.364	-128.1629
2580.000000	102.392	-130.9053
2620.000000	102.348	-133.4283
2650.000000	102.276	-135.1146
2690.000000	102.141	-137.0233
2720.000000	102.022	-138.1772
2760.000000	101.856	-139.3567
2800.000000	101.696	-140.1714
2850.000000	101.523	-140.7895
2900.000000	101.391	-141.1330
2950.000000	101.298	-141.3550
3000.000000	101.235	-141.5514
3040.000000	101.197	-141.7335
3070.000000	101.172	-141.8901
3110.000000	101.138	-142.1171
3150.000000	101.097	-142.3520
3200.000000	101.033	-142.6318
3250.000000	100.954	-142.8532
3300.000000	100.865	-142.9772
3350.000000	100.770	-142.9722
3400.000000	100.670	-142.7966
3450.000000	100.573	-142.4173
3500.000000	100.488	-141.8153
3550.000000	100.425	-140.9854
3600.000000	100.397	-139.9487
3650.000000	100.415	-138.7631
3700.000000	100.491	-137.5172
3750.000000	100.627	-136.3260
3820.000000	100.909	-134.9961
3870.000000	101.158	-134.4238
3950.000000	101.583	-134.2239
4000.000000	101.848	-134.4842
4060.000000	102.159	-135.1097
4120.000000	102.459	-136.0494
4180.000000	102.743	-137.3056
4250.000000	103.038	-139.1472
4310.000000	103.249	-140.9718
4370.000000	103.418	-142.9126
4440.000000	103.573	-145.1836
4500.000000	103.687	-147.0831
4550.000000	103.782	-148.6692
4620.000000	103.921	-151.0306
4680.000000	104.040	-153.3078
4750.000000	104.156	-156.3468
4820.000000	104.223	-159.7992
4870.000000	104.226	-162.4780
4940.000000	104.155	-166.4262
5000.000000	104.015	-169.8831
5080.000000	103.711	-174.3970
5150.000000	103.345	-178.0792
5220.000000	102.898	178.6295
5300.000000	102.312	175.4505
5380.000000	101.672	172.9376
5450.000000	101.087	171.2820
5520.000000	100.493	170.1032
5600.000000	99.817	169.2856
5700.000000	98.993	168.9684
5800.000000	98.205	169.3226
5900.000000	97.463	170.2411
6000.000000	96.775	171.6381
6080.000000	96.265	173.0409
6150.000000	95.852	174.4380
6220.000000	95.470	175.9662
6300.000000	95.074	177.8431
6400.000000	94.641	-179.6659
6500.000000	94.272	-177.0692
6600.000000	93.957	-174.4131
6700.000000	93.693	-171.7304
6800.000000	93.474	-169.0335
6900.000000	93.294	-166.3126
7000.000000	93.155	-163.5418
7100.000000	93.065	-160.7050
7200.000000	93.032	-157.8291
7300.000000	93.061	-154.9716
7400.000000	93.153	-152.1807
7500.000000	93.309	-149.4960
7620.000000	93.585	-146.4669
7750.000000	93.997	-143.4959
7880.000000	94.535	-140.9594
8000.000000	95.139	-139.1393
8120.000000	95.848	-137.9911
8250.000000	96.764	-137.7906
8380.000000	97.847	-139.1727
8500.000000	98.958	-142.5286
8620.000000	100.066	-148.6674
8750.000000	101.025	-159.0899
8850.000000	101.403	-169.4802
9000.000000	101.169	173.6400
9120.000000	100.324	161.8323
9250.000000	98.983	152.5034
9380.000000	97.481	146.7177
9500.000000	96.130	143.7817
9620.000000	94.895	142.4522
9750.000000	93.717	142.2460
9880.000000	92.707	142.9069
10000.000000	91.922	144.0316
10150.000000	91.134	145.8605
10300.000000	90.548	147.8862
10440.000000	90.160	149.7430
10600.000000	89.881	151.6807
10750.000000	89.770	153.2545
10900.000000	89.816	154.4924
11060.000000	90.056	155.2108
11200.000000	90.445	155.0210
11380.000000	91.199	152.9544
11500.000000	91.835	149.8315
11720.000000	93.023	138.4874
11800.000000	93.333	132.1589
12060.000000	93.171	105.5987
12200.000000	92.167	91.3705
12410.000000	89.732	75.7067
12500.000000	88.512	71.3215
12650.000000	86.453	66.4679
12800.000000	84.492	63.8045
13150.000000	80.520	62.1276
13200.000000	80.018	62.1711
13400.000000	78.148	62.6898
13600.000000	76.465	63.4918
13800.000000	74.932	64.3236
14000.000000	73.522	65.0135
14300.000000	71.595	65.5324
14500.000000	70.423	65.4286
14750.000000	69.079	64.5906
15000.000000	67.866	62.7754
15250.000000	66.798	59.8168
15500.000000	65.891	55.4611
15750.000000	65.175	49.4571
16000.000000	64.677	41.7023
16250.000000	64.414	32.1362
16500.000000	64.440	20.8472
16750.000000	64.801	7.9354
17000.000000	65.505	-6.6188
17250.000000	66.535	-22.9841
17500.000000	67.806	-41.5291
17750.000000	69.191	-62.7991
18000.000000	70.525	-87.3708
18250.000000	71.623	-115.4426
18500.000000	72.331	-146.5914
18750.000000	72.600	-179.9368
19000.000000	72.469	145.2112
19250.000000	71.992	108.9951
19500.000000	71.198	71.7489
19750.000000	70.181	37.0637
