* Measurement data measured by REW V5.20.13
* Source: Headset (USB-C to 3.5mm Headphone Jack Adapter), MICROPHONE (Master Volume), L, volume: 0.250
* Format: 256k Log Swept Sine, 1 sweep at -12.0 dBFS with no timing reference
* Dated: 09 30, 24 3:56:51 PM
* REW Settings:
*  C-weighting compensation: Off
*  Target level: 75.0 dB
* Note: ; CP100
* Measurement: JVC HA-FXT200LTD CP100 R
* Smoothing: 1/24 octave
* Frequency Step: 1/48 octave
* Start Frequency: 20.300 Hz
*
* Freq(Hz)	SPL(dB)	Phase(degrees)
20.299999	98.919	-117.2374
20.600000	98.955	-117.7110
20.900000	99.027	-118.5446
21.200001	99.091	-119.3063
21.400000	99.129	-119.7801
21.799999	99.201	-120.7059
22.000000	99.235	-121.1751
22.400000	99.301	-122.1183
22.700001	99.348	-122.8221
23.000000	99.394	-123.5216
23.299999	99.441	-124.2160
23.600000	99.489	-124.9068
24.000000	99.554	-125.8239
24.299999	99.602	-126.5065
24.700001	99.665	-127.4006
25.000000	99.709	-128.0506
25.400000	99.766	-128.8831
25.799999	99.820	-129.6800
26.200001	99.871	-130.4546
26.500000	99.908	-131.0297
26.900000	99.954	-131.7932
27.200001	99.986	-132.3617
27.600000	100.027	-133.1079
28.000000	100.067	-133.8342
28.500000	100.118	-134.7143
29.000000	100.170	-135.5750
29.500000	100.221	-136.4270
30.000000	100.268	-137.2704
30.400000	100.302	-137.9326
30.700001	100.325	-138.4184
31.100000	100.354	-139.0503
31.500000	100.382	-139.6669
32.000000	100.418	-140.4258
32.500000	100.454	-141.1806
33.000000	100.488	-141.9283
33.500000	100.520	-142.6548
34.000000	100.550	-143.3489
34.500000	100.579	-144.0145
35.000000	100.606	-144.6646
35.500000	100.630	-145.3073
36.000000	100.650	-145.9395
36.500000	100.669	-146.5574
37.000000	100.690	-147.1665
37.500000	100.713	-147.7773
38.200001	100.746	-148.6339
38.700001	100.767	-149.2277
39.500000	100.798	-150.1208
40.000000	100.817	-150.6610
40.599998	100.840	-151.3153
41.200001	100.859	-151.9718
41.799999	100.876	-152.6098
42.500000	100.893	-153.3298
43.099998	100.906	-153.9428
43.700001	100.916	-154.5477
44.400002	100.927	-155.2281
45.000000	100.940	-155.8044
45.500000	100.952	-156.2946
46.200001	100.963	-156.9731
46.799999	100.969	-157.5067
47.500000	100.978	-158.0760
48.200001	100.992	-158.6434
48.700001	101.000	-159.0582
49.400002	101.007	-159.6302
50.000000	101.011	-160.1075
50.799999	101.015	-160.7503
51.500000	101.017	-161.3148
52.200001	101.020	-161.8542
53.000000	101.027	-162.4362
53.799999	101.035	-163.0025
54.500000	101.037	-163.4968
55.200001	101.036	-163.9957
56.000000	101.035	-164.5607
57.000000	101.039	-165.2311
58.000000	101.046	-165.8773
59.000000	101.043	-166.5004
60.000000	101.040	-167.1170
60.799999	101.036	-167.6185
61.500000	101.030	-168.0215
62.200001	101.022	-168.3868
63.000000	101.012	-168.8261
64.000000	100.997	-169.4490
65.000000	100.992	-170.0702
66.000000	101.001	-170.6586
67.000000	101.003	-171.1955
68.000000	100.994	-171.6644
69.000000	100.982	-172.1071
70.000000	100.969	-172.5784
71.000000	100.959	-173.1173
72.000000	100.949	-173.6750
73.000000	100.938	-174.1674
74.000000	100.928	-174.6007
75.000000	100.919	-175.0189
76.199997	100.901	-175.4918
77.500000	100.870	-176.0632
78.800003	100.826	-176.8263
80.000000	100.801	-177.2688
81.199997	100.815	-177.4491
82.500000	100.820	-177.8564
83.800003	100.808	-178.3640
85.000000	100.813	-178.6621
86.199997	100.826	-178.9270
87.500000	100.807	-179.5356
88.500000	100.761	179.8654
90.000000	100.692	179.0776
91.199997	100.682	178.6644
92.500000	100.701	178.2791
93.800003	100.688	177.9026
95.000000	100.657	177.5136
96.199997	100.632	177.0799
97.500000	100.616	176.6395
98.800003	100.597	176.2503
100.000000	100.577	175.8909
101.500000	100.554	175.4360
103.000000	100.531	174.9968
104.400002	100.504	174.5999
106.000000	100.472	174.1527
107.500000	100.444	173.7435
109.000000	100.416	173.3451
110.599998	100.388	172.9366
112.000000	100.363	172.5898
113.800003	100.330	172.1582
115.000000	100.308	171.8874
117.199997	100.269	171.3583
118.000000	100.256	171.1536
120.599998	100.206	170.5467
122.000000	100.178	170.2395
124.099998	100.138	169.7845
125.000000	100.121	169.5891
126.500000	100.095	169.2674
128.000000	100.070	168.9622
131.500000	100.014	168.2713
132.000000	100.006	168.1740
134.000000	99.972	167.7887
136.000000	99.938	167.4123
138.000000	99.903	167.0530
140.000000	99.870	166.6982
143.000000	99.821	166.1771
145.000000	99.787	165.8437
147.500000	99.743	165.4361
150.000000	99.699	165.0386
152.500000	99.654	164.6420
155.000000	99.610	164.2598
157.500000	99.567	163.9136
160.000000	99.520	163.5659
162.500000	99.465	163.2125
165.000000	99.404	162.8741
167.500000	99.343	162.5453
170.000000	99.282	162.2264
172.500000	99.222	161.9159
175.000000	99.161	161.6103
177.500000	99.099	161.3105
180.000000	99.040	161.0224
182.500000	98.980	160.7460
185.000000	98.921	160.4804
187.500000	98.862	160.2265
190.000000	98.802	159.9697
192.500000	98.742	159.7130
195.000000	98.683	159.4682
197.500000	98.626	159.2331
200.000000	98.573	159.0034
203.000000	98.516	158.7313
206.000000	98.465	158.4626
209.000000	98.414	158.2083
212.000000	98.363	157.9660
214.000000	98.329	157.8058
218.000000	98.262	157.4902
220.000000	98.228	157.3389
224.000000	98.160	157.0531
227.000000	98.109	156.8495
230.000000	98.058	156.6554
233.000000	98.008	156.4648
236.000000	97.957	156.2805
240.000000	97.891	156.0512
243.000000	97.841	155.8832
247.000000	97.773	155.6652
250.000000	97.722	155.5130
254.000000	97.652	155.3197
258.000000	97.582	155.1342
262.000000	97.512	154.9560
265.000000	97.460	154.8246
269.000000	97.390	154.6538
272.000000	97.338	154.5311
276.000000	97.269	154.3744
280.000000	97.199	154.2273
285.000000	97.112	154.0582
290.000000	97.025	153.9018
295.000000	96.939	153.7570
300.000000	96.853	153.6252
304.000000	96.785	153.5313
307.000000	96.734	153.4660
311.000000	96.667	153.3840
315.000000	96.600	153.3095
320.000000	96.519	153.2273
325.000000	96.437	153.1542
330.000000	96.357	153.0901
335.000000	96.278	153.0364
340.000000	96.200	152.9948
345.000000	96.121	152.9636
350.000000	96.043	152.9426
355.000000	95.966	152.9306
360.000000	95.890	152.9287
365.000000	95.814	152.9339
370.000000	95.739	152.9467
375.000000	95.665	152.9666
382.000000	95.561	153.0054
387.000000	95.488	153.0427
395.000000	95.372	153.1221
400.000000	95.300	153.1816
406.000000	95.216	153.2606
412.000000	95.132	153.3490
418.000000	95.050	153.4492
425.000000	94.954	153.5790
431.000000	94.874	153.6985
437.000000	94.794	153.8282
444.000000	94.702	153.9922
450.000000	94.625	154.1399
455.000000	94.560	154.2684
462.000000	94.471	154.4596
468.000000	94.396	154.6317
475.000000	94.309	154.8406
482.000000	94.224	155.0617
487.000000	94.163	155.2264
494.000000	94.080	155.4648
500.000000	94.009	155.6763
508.000000	93.916	155.9695
515.000000	93.837	156.2392
522.000000	93.759	156.5179
530.000000	93.671	156.8435
538.000000	93.584	157.1785
545.000000	93.510	157.4814
552.000000	93.437	157.7922
560.000000	93.355	158.1575
570.000000	93.255	158.6299
580.000000	93.158	159.1155
590.000000	93.063	159.6142
600.000000	92.970	160.1262
608.000000	92.898	160.5463
615.000000	92.836	160.9220
622.000000	92.775	161.3041
630.000000	92.707	161.7490
640.000000	92.624	162.3152
650.000000	92.542	162.8924
660.000000	92.464	163.4808
670.000000	92.389	164.0775
680.000000	92.316	164.6839
690.000000	92.246	165.3018
700.000000	92.179	165.9281
710.000000	92.115	166.5632
720.000000	92.054	167.2078
730.000000	91.996	167.8580
740.000000	91.942	168.5154
750.000000	91.890	169.1784
762.000000	91.832	169.9784
775.000000	91.775	170.8495
788.000000	91.723	171.7263
800.000000	91.680	172.5370
812.000000	91.639	173.3465
825.000000	91.600	174.2233
838.000000	91.566	175.1012
850.000000	91.539	175.9064
862.000000	91.517	176.7034
875.000000	91.497	177.5585
885.000000	91.485	178.2083
900.000000	91.470	179.1689
912.000000	91.462	179.9363
925.000000	91.455	-179.2108
938.000000	91.457	-178.3077
950.000000	91.480	-177.4820
962.000000	91.516	-176.7832
975.000000	91.550	-176.1570
988.000000	91.574	-175.5582
1000.000000	91.597	-175.0034
1015.000000	91.631	-174.3263
1030.000000	91.670	-173.6836
1044.000000	91.710	-173.1295
1060.000000	91.757	-172.5707
1075.000000	91.800	-172.1376
1090.000000	91.834	-171.8070
1106.000000	91.849	-171.5438
1120.000000	91.837	-171.3011
1138.000000	91.795	-170.7721
1150.000000	91.771	-170.2389
1172.000000	91.774	-169.0934
1180.000000	91.789	-168.6952
1206.000000	91.866	-167.6299
1220.000000	91.914	-167.2106
1241.000000	91.984	-166.8095
1250.000000	92.008	-166.7406
1265.000000	92.027	-166.7887
1280.000000	91.989	-166.9550
1315.000000	91.707	-165.6129
1320.000000	91.688	-165.1565
1340.000000	91.724	-163.4651
1360.000000	91.830	-162.4313
1380.000000	91.916	-161.8479
1400.000000	91.974	-161.4554
1430.000000	92.020	-161.0376
1450.000000	92.024	-160.8455
1475.000000	91.990	-160.6919
1500.000000	91.892	-160.5720
1525.000000	91.701	-160.2464
1550.000000	91.409	-159.1756
1575.000000	91.095	-156.7090
1600.000000	90.939	-152.8871
1625.000000	91.057	-148.8422
1650.000000	91.369	-145.7270
1675.000000	91.723	-143.7614
1700.000000	92.039	-142.5766
1725.000000	92.302	-141.7841
1750.000000	92.521	-141.1527
1775.000000	92.710	-140.5771
1800.000000	92.879	-140.0132
1825.000000	93.036	-139.4458
1850.000000	93.185	-138.8736
1875.000000	93.328	-138.2974
1900.000000	93.468	-137.7175
1925.000000	93.606	-137.1353
1950.000000	93.742	-136.5519
1975.000000	93.878	-135.9659
2000.000000	94.015	-135.3749
2030.000000	94.180	-134.6513
2060.000000	94.351	-133.8989
2090.000000	94.534	-133.1149
2120.000000	94.736	-132.3277
2140.000000	94.885	-131.8378
2180.000000	95.211	-131.0704
2200.000000	95.378	-130.8252
2240.000000	95.704	-130.5780
2270.000000	95.935	-130.5331
2300.000000	96.155	-130.5562
2330.000000	96.368	-130.6289
2360.000000	96.576	-130.7489
2400.000000	96.849	-130.9904
2430.000000	97.050	-131.2409
2470.000000	97.311	-131.6734
2500.000000	97.502	-132.0759
2540.000000	97.748	-132.7163
2580.000000	97.981	-133.4656
2620.000000	98.198	-134.3123
2650.000000	98.350	-135.0032
2690.000000	98.537	-135.9871
2720.000000	98.665	-136.7620
2760.000000	98.818	-137.8290
2800.000000	98.952	-138.9209
2850.000000	99.094	-140.2962
2900.000000	99.207	-141.6533
2950.000000	99.295	-142.9583
3000.000000	99.361	-144.1847
3040.000000	99.402	-145.0981
3070.000000	99.426	-145.7409
3110.000000	99.453	-146.5415
3150.000000	99.472	-147.2793
3200.000000	99.486	-148.1213
3250.000000	99.494	-148.8843
3300.000000	99.502	-149.5730
3350.000000	99.515	-150.1856
3400.000000	99.536	-150.7270
3450.000000	99.572	-151.2279
3500.000000	99.626	-151.7414
3550.000000	99.696	-152.3208
3600.000000	99.778	-152.9998
3650.000000	99.867	-153.7956
3700.000000	99.960	-154.7199
3750.000000	100.053	-155.7861
3820.000000	100.179	-157.5392
3870.000000	100.259	-158.9904
3950.000000	100.358	-161.6711
4000.000000	100.393	-163.5675
4060.000000	100.395	-166.0378
4120.000000	100.343	-168.6609
4180.000000	100.228	-171.3378
4250.000000	100.013	-174.3667
4310.000000	99.768	-176.7511
4370.000000	99.480	-178.8577
4440.000000	99.116	179.0577
4500.000000	98.795	177.5379
4550.000000	98.528	176.3955
4620.000000	98.150	174.9007
4680.000000	97.812	173.6922
4750.000000	97.394	172.4092
4820.000000	96.947	171.3381
4870.000000	96.613	170.7389
4940.000000	96.132	170.1577
5000.000000	95.713	169.9033
5080.000000	95.153	169.9002
5150.000000	94.669	170.1870
5220.000000	94.195	170.7175
5300.000000	93.671	171.5876
5380.000000	93.166	172.7054
5450.000000	92.740	173.8660
5520.000000	92.327	175.1888
5600.000000	91.872	176.9029
5700.000000	91.327	179.3812
5800.000000	90.818	-177.7113
5900.000000	90.364	-174.3406
6000.000000	89.991	-170.5691
6080.000000	89.762	-167.3707
6150.000000	89.615	-164.5116
6220.000000	89.514	-161.6357
6300.000000	89.457	-158.3563
6400.000000	89.475	-154.2937
6500.000000	89.590	-150.3122
6600.000000	89.805	-146.5002
6700.000000	90.120	-142.9757
6800.000000	90.528	-139.8591
6900.000000	91.018	-137.2368
7000.000000	91.581	-135.1614
7100.000000	92.211	-133.6832
7200.000000	92.903	-132.8644
7300.000000	93.656	-132.7894
7400.000000	94.466	-133.5801
7500.000000	95.324	-135.4210
7620.000000	96.387	-139.4054
7750.000000	97.464	-146.5273
7880.000000	98.245	-156.8993
8000.000000	98.479	-168.6325
8120.000000	98.133	179.3742
8250.000000	97.188	168.3174
8380.000000	95.886	160.4631
8500.000000	94.582	155.9650
8620.000000	93.318	153.5393
8750.000000	92.073	152.5751
8850.000000	91.222	152.6505
9000.000000	90.128	153.6450
9120.000000	89.403	154.9320
9250.000000	88.763	156.6008
9380.000000	88.267	158.3856
9500.000000	87.934	160.0018
9620.000000	87.719	161.4671
9750.000000	87.618	162.7314
9880.000000	87.654	163.4652
10000.000000	87.810	163.4564
10150.000000	88.158	162.1043
10300.000000	88.613	158.6456
10440.000000	89.016	152.9060
10600.000000	89.226	143.0707
10750.000000	88.950	131.5088
10900.000000	88.092	119.7220
11060.000000	86.599	109.2645
11200.000000	84.974	102.8449
11380.000000	82.727	98.1157
11500.000000	81.247	96.6685
11720.000000	78.706	96.3725
11800.000000	77.849	96.7825
12060.000000	75.304	99.2223
12200.000000	74.072	100.9619
12410.000000	72.385	103.8203
12500.000000	71.718	105.0822
12650.000000	70.680	107.1772
12800.000000	69.724	109.2097
13150.000000	67.763	113.4769
13200.000000	67.512	114.0091
13400.000000	66.585	115.8761
13600.000000	65.789	117.1928
13800.000000	65.120	117.7361
14000.000000	64.558	117.4614
14300.000000	63.914	115.6847
14500.000000	63.659	113.6421
14750.000000	63.573	110.0555
15000.000000	63.777	105.3005
15250.000000	64.280	99.3625
15500.000000	65.090	92.1800
15750.000000	66.205	83.5382
16000.000000	67.560	72.8278
16250.000000	69.042	59.3168
16500.000000	70.471	42.1352
16750.000000	71.571	20.9512
17000.000000	72.094	-3.1536
17250.000000	71.975	-27.8468
17500.000000	71.363	-51.1295
17750.000000	70.509	-72.5817
18000.000000	69.616	-93.0192
18250.000000	68.790	-113.6442
18500.000000	68.044	-135.5801
18750.000000	67.327	-159.7825
19000.000000	66.546	173.0143
19250.000000	65.582	142.4660
19500.000000	64.315	109.2169
19750.000000	62.773	77.2994
