* Measurement data measured by REW V5.20.13
* Source: Headset (USB-C to 3.5mm Headphone Jack Adapter), MICROPHONE (Master Volume), L, volume: 0.250
* Format: 256k Log Swept Sine, 1 sweep at -12.0 dBFS with no timing reference
* Dated: 09 29, 24 9:27:30 PM
* REW Settings:
*  C-weighting compensation: Off
*  Target level: 75.0 dB
* Note: ; CP100
* Measurement: Massdrop Plus R CP100
* Smoothing: 1/24 octave
* Frequency Step: 1/48 octave
* Start Frequency: 20.300 Hz
*
* Freq(Hz)	SPL(dB)	Phase(degrees)
20.299999	93.726	62.4443
20.600000	93.765	61.9733
20.900000	93.840	61.1349
21.200001	93.905	60.3456
21.400000	93.944	59.8469
21.799999	94.016	58.8730
22.000000	94.051	58.3877
22.400000	94.119	57.4339
22.700001	94.168	56.7387
23.000000	94.217	56.0578
23.299999	94.265	55.3896
23.600000	94.314	54.7315
24.000000	94.380	53.8661
24.299999	94.429	53.2242
24.700001	94.495	52.3774
25.000000	94.543	51.7490
25.400000	94.605	50.9204
25.799999	94.665	50.1028
26.200001	94.721	49.2974
26.500000	94.760	48.7029
26.900000	94.811	47.9257
27.200001	94.847	47.3555
27.600000	94.895	46.6127
28.000000	94.942	45.8885
28.500000	94.999	45.0066
29.000000	95.054	44.1478
29.500000	95.106	43.3106
30.000000	95.156	42.4913
30.400000	95.194	41.8463
30.700001	95.223	41.3685
31.100000	95.259	40.7415
31.500000	95.294	40.1282
32.000000	95.334	39.3809
32.500000	95.371	38.6460
33.000000	95.405	37.9097
33.500000	95.439	37.1655
34.000000	95.475	36.4211
34.500000	95.512	35.6951
35.000000	95.549	35.0051
35.500000	95.585	34.3569
36.000000	95.618	33.7370
36.500000	95.647	33.1217
37.000000	95.672	32.4947
37.500000	95.695	31.8608
38.200001	95.730	30.9929
38.700001	95.757	30.3957
39.500000	95.795	29.4662
40.000000	95.813	28.8989
40.599998	95.834	28.2151
41.200001	95.864	27.4776
41.799999	95.900	26.6732
42.500000	95.933	25.7733
43.099998	95.952	25.1734
43.700001	95.972	24.7161
44.400002	95.998	24.1839
45.000000	96.014	23.6260
45.500000	96.020	23.1173
46.200001	96.028	22.4261
46.799999	96.044	21.8730
47.500000	96.069	21.2254
48.200001	96.086	20.5671
48.700001	96.091	20.1185
49.400002	96.095	19.5331
50.000000	96.103	19.0297
50.799999	96.117	18.3237
51.500000	96.132	17.7381
52.200001	96.156	17.2209
53.000000	96.193	16.6421
53.799999	96.224	16.0220
54.500000	96.241	15.4666
55.200001	96.250	14.9152
56.000000	96.252	14.3221
57.000000	96.250	13.6769
58.000000	96.254	12.9938
59.000000	96.258	12.1981
60.000000	96.267	11.4348
60.799999	96.280	10.8725
61.500000	96.287	10.3991
62.200001	96.287	9.9476
63.000000	96.280	9.4674
64.000000	96.274	8.8893
65.000000	96.276	8.2649
66.000000	96.282	7.6237
67.000000	96.289	7.0189
68.000000	96.291	6.4223
69.000000	96.288	5.8249
70.000000	96.288	5.2486
71.000000	96.287	4.7161
72.000000	96.287	4.1750
73.000000	96.292	3.5599
74.000000	96.298	2.9215
75.000000	96.288	2.3636
76.199997	96.263	1.7438
77.500000	96.255	0.9684
78.800003	96.261	0.4056
80.000000	96.268	0.0779
81.199997	96.262	-0.4820
82.500000	96.247	-1.2017
83.800003	96.249	-1.8517
85.000000	96.256	-2.4361
86.199997	96.264	-3.0151
87.500000	96.239	-3.5207
88.500000	96.179	-3.7661
90.000000	96.082	-4.1457
91.199997	96.083	-4.7382
92.500000	96.123	-5.5677
93.800003	96.136	-6.2054
95.000000	96.134	-6.6969
96.199997	96.131	-7.1319
97.500000	96.124	-7.5335
98.800003	96.107	-7.9938
100.000000	96.090	-8.4773
101.500000	96.075	-9.0857
103.000000	96.060	-9.6587
104.400002	96.046	-10.1551
106.000000	96.025	-10.7284
107.500000	96.005	-11.2989
109.000000	95.991	-11.8685
110.599998	95.976	-12.4456
112.000000	95.957	-12.9353
113.800003	95.933	-13.5476
115.000000	95.916	-13.9451
117.199997	95.885	-14.6658
118.000000	95.873	-14.9209
120.599998	95.835	-15.7437
122.000000	95.815	-16.1971
124.099998	95.783	-16.8403
125.000000	95.770	-17.1134
126.500000	95.750	-17.5707
128.000000	95.730	-18.0199
131.500000	95.685	-19.0158
132.000000	95.678	-19.1552
134.000000	95.650	-19.7076
136.000000	95.622	-20.2565
138.000000	95.594	-20.8065
140.000000	95.568	-21.3498
143.000000	95.525	-22.1395
145.000000	95.496	-22.6529
147.500000	95.460	-23.2919
150.000000	95.424	-23.9095
152.500000	95.388	-24.4925
155.000000	95.350	-25.0661
157.500000	95.311	-25.6638
160.000000	95.267	-26.2626
162.500000	95.215	-26.8394
165.000000	95.159	-27.3957
167.500000	95.102	-27.9345
170.000000	95.046	-28.4620
172.500000	94.989	-28.9856
175.000000	94.932	-29.5027
177.500000	94.875	-30.0058
180.000000	94.818	-30.4949
182.500000	94.761	-30.9835
185.000000	94.705	-31.4650
187.500000	94.648	-31.9360
190.000000	94.591	-32.4001
192.500000	94.533	-32.8603
195.000000	94.475	-33.3143
197.500000	94.420	-33.7519
200.000000	94.370	-34.1752
203.000000	94.316	-34.6732
206.000000	94.266	-35.1650
209.000000	94.216	-35.6529
212.000000	94.167	-36.1364
214.000000	94.135	-36.4535
218.000000	94.072	-37.0684
220.000000	94.041	-37.3700
224.000000	93.975	-37.9636
227.000000	93.927	-38.4003
230.000000	93.877	-38.8290
233.000000	93.827	-39.2474
236.000000	93.778	-39.6601
240.000000	93.713	-40.1983
243.000000	93.664	-40.5873
247.000000	93.598	-41.0909
250.000000	93.547	-41.4576
254.000000	93.477	-41.9334
258.000000	93.407	-42.3987
262.000000	93.336	-42.8523
265.000000	93.283	-43.1826
269.000000	93.213	-43.6106
272.000000	93.160	-43.9227
276.000000	93.090	-44.3295
280.000000	93.021	-44.7267
285.000000	92.936	-45.2035
290.000000	92.852	-45.6574
295.000000	92.768	-46.0982
300.000000	92.685	-46.5280
304.000000	92.620	-46.8576
307.000000	92.572	-47.0961
311.000000	92.508	-47.4068
315.000000	92.446	-47.7111
320.000000	92.369	-48.0813
325.000000	92.294	-48.4376
330.000000	92.219	-48.7788
335.000000	92.146	-49.1069
340.000000	92.072	-49.4290
345.000000	92.001	-49.7382
350.000000	91.930	-50.0270
355.000000	91.860	-50.3002
360.000000	91.791	-50.5596
365.000000	91.723	-50.8088
370.000000	91.657	-51.0515
375.000000	91.591	-51.2840
382.000000	91.499	-51.5931
387.000000	91.435	-51.8024
395.000000	91.335	-52.1124
400.000000	91.273	-52.2921
406.000000	91.200	-52.4958
412.000000	91.130	-52.6848
418.000000	91.061	-52.8581
425.000000	90.983	-53.0421
431.000000	90.917	-53.1863
437.000000	90.853	-53.3171
444.000000	90.779	-53.4502
450.000000	90.718	-53.5532
455.000000	90.668	-53.6325
462.000000	90.600	-53.7316
468.000000	90.544	-53.8054
475.000000	90.480	-53.8759
482.000000	90.419	-53.9295
487.000000	90.376	-53.9589
494.000000	90.319	-53.9905
500.000000	90.270	-54.0098
508.000000	90.209	-54.0228
515.000000	90.157	-54.0203
522.000000	90.108	-54.0069
530.000000	90.054	-53.9811
538.000000	90.003	-53.9424
545.000000	89.960	-53.8961
552.000000	89.919	-53.8394
560.000000	89.874	-53.7659
570.000000	89.823	-53.6603
580.000000	89.775	-53.5353
590.000000	89.730	-53.3935
600.000000	89.689	-53.2360
608.000000	89.658	-53.0988
615.000000	89.634	-52.9698
622.000000	89.611	-52.8333
630.000000	89.587	-52.6700
640.000000	89.560	-52.4520
650.000000	89.534	-52.2194
660.000000	89.513	-51.9740
670.000000	89.495	-51.7161
680.000000	89.482	-51.4474
690.000000	89.471	-51.1698
700.000000	89.463	-50.8805
710.000000	89.459	-50.5799
720.000000	89.459	-50.2671
730.000000	89.463	-49.9439
740.000000	89.471	-49.6132
750.000000	89.482	-49.2755
762.000000	89.501	-48.8597
775.000000	89.527	-48.3965
788.000000	89.559	-47.9268
800.000000	89.594	-47.4868
812.000000	89.633	-47.0459
825.000000	89.681	-46.5641
838.000000	89.736	-46.0794
850.000000	89.792	-45.6336
862.000000	89.854	-45.1939
875.000000	89.927	-44.7298
885.000000	89.988	-44.3811
900.000000	90.085	-43.8741
912.000000	90.167	-43.4844
925.000000	90.261	-43.0800
938.000000	90.359	-42.6947
950.000000	90.455	-42.3526
962.000000	90.553	-42.0253
975.000000	90.664	-41.6919
988.000000	90.778	-41.3815
1000.000000	90.887	-41.1169
1015.000000	91.029	-40.8212
1030.000000	91.176	-40.5633
1044.000000	91.315	-40.3535
1060.000000	91.475	-40.1490
1075.000000	91.627	-39.9897
1090.000000	91.779	-39.8646
1106.000000	91.941	-39.7682
1120.000000	92.082	-39.7104
1138.000000	92.262	-39.6701
1150.000000	92.382	-39.6640
1172.000000	92.601	-39.6914
1180.000000	92.680	-39.7125
1206.000000	92.932	-39.8164
1220.000000	93.066	-39.8933
1241.000000	93.263	-40.0288
1250.000000	93.346	-40.0933
1265.000000	93.483	-40.2090
1280.000000	93.619	-40.3341
1315.000000	93.928	-40.6562
1320.000000	93.972	-40.7055
1340.000000	94.144	-40.9117
1360.000000	94.313	-41.1253
1380.000000	94.479	-41.3416
1400.000000	94.645	-41.5639
1430.000000	94.891	-41.9115
1450.000000	95.053	-42.1521
1475.000000	95.255	-42.4691
1500.000000	95.454	-42.8081
1525.000000	95.651	-43.1672
1550.000000	95.845	-43.5478
1575.000000	96.036	-43.9511
1600.000000	96.224	-44.3772
1625.000000	96.406	-44.8298
1650.000000	96.584	-45.3077
1675.000000	96.757	-45.8088
1700.000000	96.925	-46.3298
1725.000000	97.088	-46.8763
1750.000000	97.245	-47.4432
1775.000000	97.396	-48.0232
1800.000000	97.541	-48.6182
1825.000000	97.680	-49.2243
1850.000000	97.813	-49.8397
1875.000000	97.939	-50.4681
1900.000000	98.058	-51.1087
1925.000000	98.170	-51.7565
1950.000000	98.274	-52.4071
1975.000000	98.371	-53.0580
2000.000000	98.460	-53.7059
2030.000000	98.556	-54.4744
2060.000000	98.642	-55.2259
2090.000000	98.718	-55.9520
2120.000000	98.785	-56.6503
2140.000000	98.825	-57.1036
2180.000000	98.893	-57.9837
2200.000000	98.920	-58.4016
2240.000000	98.963	-59.1650
2270.000000	98.985	-59.6693
2300.000000	99.001	-60.0978
2330.000000	99.015	-60.4291
2360.000000	99.035	-60.6790
2400.000000	99.080	-60.9773
2430.000000	99.125	-61.2504
2470.000000	99.183	-61.7250
2500.000000	99.217	-62.1348
2540.000000	99.247	-62.6875
2580.000000	99.264	-63.2086
2620.000000	99.271	-63.6904
2650.000000	99.270	-64.0156
2690.000000	99.266	-64.4071
2720.000000	99.261	-64.6902
2760.000000	99.249	-65.0669
2800.000000	99.227	-65.4270
2850.000000	99.185	-65.8135
2900.000000	99.128	-66.1117
2950.000000	99.059	-66.2638
3000.000000	98.996	-66.2575
3040.000000	98.956	-66.2205
3070.000000	98.928	-66.2040
3110.000000	98.887	-66.1905
3150.000000	98.840	-66.1683
3200.000000	98.767	-66.1107
3250.000000	98.683	-65.9763
3300.000000	98.600	-65.7636
3350.000000	98.522	-65.5112
3400.000000	98.448	-65.2225
3450.000000	98.381	-64.9102
3500.000000	98.319	-64.6199
3550.000000	98.259	-64.3640
3600.000000	98.195	-64.1442
3650.000000	98.125	-63.9451
3700.000000	98.050	-63.7521
3750.000000	97.971	-63.5786
3820.000000	97.846	-63.3785
3870.000000	97.744	-63.2547
3950.000000	97.552	-63.0672
4000.000000	97.409	-62.9236
4060.000000	97.215	-62.6554
4120.000000	97.001	-62.2025
4180.000000	96.785	-61.5407
4250.000000	96.546	-60.6184
4310.000000	96.347	-59.8194
4370.000000	96.140	-59.0383
4440.000000	95.873	-58.0780
4500.000000	95.619	-57.0926
4550.000000	95.398	-56.0925
4620.000000	95.094	-54.4118
4680.000000	94.853	-52.7769
4750.000000	94.596	-50.7521
4820.000000	94.360	-48.6710
4870.000000	94.200	-47.1653
4940.000000	93.982	-45.0272
5000.000000	93.799	-43.1544
5080.000000	93.559	-40.5789
5150.000000	93.354	-38.2403
5220.000000	93.155	-35.8105
5300.000000	92.940	-32.9126
5380.000000	92.741	-29.8882
5450.000000	92.583	-27.1517
5520.000000	92.440	-24.3400
5600.000000	92.295	-20.9982
5700.000000	92.160	-16.5956
5800.000000	92.109	-12.0343
5900.000000	92.176	-7.6454
6000.000000	92.314	-4.2204
6080.000000	92.332	-2.1016
6150.000000	92.262	0.0453
6220.000000	92.188	2.7600
6300.000000	92.170	6.3176
6400.000000	92.272	10.9233
6500.000000	92.484	15.3859
6600.000000	92.779	19.5820
6700.000000	93.145	23.4516
6800.000000	93.573	26.9485
6900.000000	94.056	30.0239
7000.000000	94.590	32.6307
7100.000000	95.170	34.7121
7200.000000	95.791	36.2005
7300.000000	96.450	36.9969
7400.000000	97.131	36.9465
7500.000000	97.808	35.8760
7620.000000	98.544	33.0971
7750.000000	99.144	28.3774
7880.000000	99.441	22.4948
8000.000000	99.406	16.8856
8120.000000	99.107	11.8437
8250.000000	98.581	7.4353
8380.000000	97.946	4.1327
8500.000000	97.319	1.9444
8620.000000	96.701	0.3770
8750.000000	96.073	-1.1077
8850.000000	95.596	-2.3887
9000.000000	94.814	-4.5619
9120.000000	94.092	-6.3065
9250.000000	93.198	-7.9075
9380.000000	92.196	-8.9313
9500.000000	91.199	-9.2151
9620.000000	90.151	-8.7923
9750.000000	88.988	-7.4376
9880.000000	87.841	-5.2160
10000.000000	86.825	-2.6004
10150.000000	85.608	1.3213
10300.000000	84.459	6.0718
10440.000000	83.491	11.1001
10600.000000	82.517	17.1919
10750.000000	81.715	23.1171
10900.000000	81.018	29.2352
11060.000000	80.401	35.8932
11200.000000	79.966	41.7410
11380.000000	79.547	49.4240
11500.000000	79.400	54.7353
11720.000000	79.515	63.8327
11800.000000	79.653	66.6653
12060.000000	80.322	74.1892
12200.000000	80.821	77.2768
12410.000000	81.782	80.4344
12500.000000	82.275	81.1066
12650.000000	83.186	81.0550
12800.000000	84.154	79.2314
13150.000000	86.094	67.0590
13200.000000	86.286	64.5262
13400.000000	86.785	53.2956
13600.000000	86.933	41.1755
13800.000000	86.869	27.9428
14000.000000	86.546	12.0314
14300.000000	84.849	-16.8048
14500.000000	82.499	-34.0335
14750.000000	78.353	-46.2599
15000.000000	73.759	-49.5373
15250.000000	69.388	-48.1839
15500.000000	65.356	-44.6662
15750.000000	61.585	-40.3988
16000.000000	57.995	-36.9891
16250.000000	54.467	-37.0198
16500.000000	50.678	-43.1863
16750.000000	46.521	-59.7813
17000.000000	42.726	-89.3848
17250.000000	41.141	-120.4048
17500.000000	41.852	-138.8836
17750.000000	43.068	-145.0053
18000.000000	44.417	-143.6100
18250.000000	46.651	-138.2134
18500.000000	49.634	-136.7451
18750.000000	52.412	-144.9574
19000.000000	54.666	-161.9855
19250.000000	56.254	173.4323
19500.000000	56.898	142.7512
19750.000000	56.583	112.8171
