* Measurement data measured by REW V5.20.13
* Source: Headset (USB-C to 3.5mm Headphone Jack Adapter), MICROPHONE (Master Volume), L, volume: 0.250
* Format: 256k Log Swept Sine, 1 sweep at -12.0 dBFS with no timing reference
* Dated: 09 30, 24 3:44:31 PM
* REW Settings:
*  C-weighting compensation: Off
*  Target level: 75.0 dB
* Note: ; CP100
* Measurement: Sony MDR-EX500SL EX11 L
* Smoothing: 1/24 octave
* Frequency Step: 1/48 octave
* Start Frequency: 20.300 Hz
*
* Freq(Hz)	SPL(dB)	Phase(degrees)
20.299999	92.618	-72.4344
20.600000	92.700	-73.1293
20.900000	92.863	-74.3357
21.200001	93.012	-75.3931
21.400000	93.109	-76.0328
21.799999	93.303	-77.2926
22.000000	93.400	-77.9608
22.400000	93.578	-79.3887
22.700001	93.688	-80.4940
23.000000	93.774	-81.5582
23.299999	93.843	-82.5177
23.600000	93.906	-83.3575
24.000000	93.998	-84.3400
24.299999	94.081	-85.0643
24.700001	94.206	-86.1282
25.000000	94.301	-87.0287
25.400000	94.415	-88.3162
25.799999	94.513	-89.5793
26.200001	94.605	-90.7220
26.500000	94.678	-91.4968
26.900000	94.784	-92.4628
27.200001	94.867	-93.1678
27.600000	94.973	-94.0870
28.000000	95.070	-94.9445
28.500000	95.187	-95.8871
29.000000	95.311	-96.7696
29.500000	95.441	-97.7595
30.000000	95.557	-98.9275
30.400000	95.632	-99.9235
30.700001	95.683	-100.6597
31.100000	95.756	-101.6129
31.500000	95.843	-102.5739
32.000000	95.964	-103.8667
32.500000	96.075	-105.2331
33.000000	96.157	-106.4850
33.500000	96.221	-107.4727
34.000000	96.293	-108.2567
34.500000	96.380	-109.0552
35.000000	96.466	-110.0048
35.500000	96.538	-111.0554
36.000000	96.601	-112.0639
36.500000	96.668	-112.9520
37.000000	96.741	-113.7284
37.500000	96.810	-114.4221
38.200001	96.889	-115.2963
38.700001	96.937	-115.9299
39.500000	97.014	-117.1751
40.000000	97.059	-118.0691
40.599998	97.110	-119.0785
41.200001	97.162	-119.8885
41.799999	97.216	-120.5502
42.500000	97.277	-121.3323
43.099998	97.328	-122.1455
43.700001	97.382	-123.0887
44.400002	97.452	-124.1830
45.000000	97.518	-124.9647
45.500000	97.572	-125.5154
46.200001	97.629	-126.2701
46.799999	97.651	-126.9669
47.500000	97.660	-127.7843
48.200001	97.688	-128.5669
48.700001	97.722	-129.1062
49.400002	97.780	-129.8216
50.000000	97.831	-130.4231
50.799999	97.886	-131.3294
51.500000	97.909	-132.2066
52.200001	97.916	-132.9810
53.000000	97.937	-133.6378
53.799999	97.985	-134.2107
54.500000	98.036	-134.7959
55.200001	98.079	-135.4922
56.000000	98.111	-136.3604
57.000000	98.142	-137.4221
58.000000	98.172	-138.3521
59.000000	98.191	-139.0878
60.000000	98.214	-139.7806
60.799999	98.244	-140.4606
61.500000	98.276	-141.1120
62.200001	98.303	-141.6933
63.000000	98.330	-142.2182
64.000000	98.358	-142.8621
65.000000	98.380	-143.6480
66.000000	98.405	-144.4024
67.000000	98.436	-145.0716
68.000000	98.453	-145.7698
69.000000	98.459	-146.4563
70.000000	98.478	-147.0831
71.000000	98.507	-147.6893
72.000000	98.533	-148.3132
73.000000	98.552	-148.9602
74.000000	98.566	-149.5696
75.000000	98.580	-150.1185
76.199997	98.600	-150.7947
77.500000	98.615	-151.5317
78.800003	98.634	-152.1889
80.000000	98.653	-152.8066
81.199997	98.666	-153.4476
82.500000	98.670	-154.1228
83.800003	98.684	-154.7345
85.000000	98.700	-155.3246
86.199997	98.711	-155.8775
87.500000	98.721	-156.4680
88.500000	98.723	-156.9274
90.000000	98.719	-157.5904
91.199997	98.718	-158.0686
92.500000	98.728	-158.5689
93.800003	98.736	-159.1308
95.000000	98.734	-159.6608
96.199997	98.734	-160.1400
97.500000	98.740	-160.6043
98.800003	98.745	-161.0652
100.000000	98.750	-161.5194
101.500000	98.757	-162.1015
103.000000	98.755	-162.6418
104.400002	98.751	-163.1086
106.000000	98.750	-163.6575
107.500000	98.752	-164.1996
109.000000	98.754	-164.7162
110.599998	98.752	-165.2295
112.000000	98.747	-165.6768
113.800003	98.739	-166.2484
115.000000	98.735	-166.6160
117.199997	98.731	-167.2581
118.000000	98.728	-167.4758
120.599998	98.716	-168.1542
122.000000	98.711	-168.5442
124.099998	98.703	-169.1169
125.000000	98.701	-169.3518
126.500000	98.699	-169.7544
128.000000	98.695	-170.1872
131.500000	98.686	-171.1420
132.000000	98.685	-171.2669
134.000000	98.679	-171.7461
136.000000	98.673	-172.2022
138.000000	98.666	-172.6812
140.000000	98.656	-173.1603
143.000000	98.646	-173.8174
145.000000	98.639	-174.2569
147.500000	98.622	-174.8193
150.000000	98.602	-175.3501
152.500000	98.586	-175.8168
155.000000	98.572	-176.3176
157.500000	98.557	-176.8583
160.000000	98.532	-177.3413
162.500000	98.499	-177.7975
165.000000	98.465	-178.2493
167.500000	98.428	-178.7105
170.000000	98.390	-179.2048
172.500000	98.351	-179.6740
175.000000	98.311	179.9272
177.500000	98.268	179.5532
180.000000	98.221	179.1510
182.500000	98.173	178.7698
185.000000	98.125	178.4069
187.500000	98.074	178.0349
190.000000	98.018	177.6622
192.500000	97.957	177.2859
195.000000	97.894	176.9292
197.500000	97.827	176.6262
200.000000	97.756	176.4156
203.000000	97.672	176.2794
206.000000	97.600	176.2352
209.000000	97.537	176.3586
212.000000	97.498	176.6217
214.000000	97.491	176.8085
218.000000	97.517	177.0531
220.000000	97.543	177.0836
224.000000	97.609	176.9858
227.000000	97.660	176.7402
230.000000	97.707	176.3895
233.000000	97.736	175.9446
236.000000	97.743	175.4457
240.000000	97.733	174.8001
243.000000	97.719	174.3365
247.000000	97.691	173.7761
250.000000	97.661	173.4127
254.000000	97.620	172.9691
258.000000	97.577	172.5281
262.000000	97.529	172.0871
265.000000	97.491	171.7845
269.000000	97.443	171.4281
272.000000	97.405	171.1807
276.000000	97.354	170.8561
280.000000	97.304	170.5577
285.000000	97.242	170.1951
290.000000	97.178	169.8169
295.000000	97.115	169.4799
300.000000	97.053	169.1797
304.000000	97.004	168.9578
307.000000	96.968	168.8036
311.000000	96.920	168.5865
315.000000	96.871	168.3704
320.000000	96.809	168.1313
325.000000	96.750	167.9044
330.000000	96.692	167.6920
335.000000	96.630	167.4837
340.000000	96.565	167.2985
345.000000	96.501	167.1254
350.000000	96.440	166.9673
355.000000	96.379	166.8334
360.000000	96.318	166.7162
365.000000	96.260	166.5895
370.000000	96.200	166.4471
375.000000	96.139	166.3252
382.000000	96.055	166.2007
387.000000	95.997	166.1400
395.000000	95.902	166.0305
400.000000	95.841	165.9551
406.000000	95.768	165.8910
412.000000	95.695	165.8515
418.000000	95.627	165.8278
425.000000	95.547	165.8162
431.000000	95.477	165.8278
437.000000	95.407	165.8501
444.000000	95.329	165.8755
450.000000	95.262	165.9108
455.000000	95.208	165.9444
462.000000	95.135	165.9938
468.000000	95.072	166.0484
475.000000	94.997	166.1273
482.000000	94.921	166.2185
487.000000	94.868	166.2828
494.000000	94.795	166.3755
500.000000	94.732	166.4702
508.000000	94.647	166.6204
515.000000	94.575	166.7724
522.000000	94.503	166.9344
530.000000	94.423	167.1243
538.000000	94.344	167.3269
545.000000	94.277	167.5184
552.000000	94.210	167.7233
560.000000	94.133	167.9718
570.000000	94.037	168.3055
580.000000	93.941	168.6620
590.000000	93.849	169.0329
600.000000	93.760	169.4195
608.000000	93.690	169.7503
615.000000	93.629	170.0516
622.000000	93.569	170.3603
630.000000	93.502	170.7206
640.000000	93.419	171.1816
650.000000	93.336	171.6581
660.000000	93.257	172.1663
670.000000	93.180	172.6994
680.000000	93.104	173.2504
690.000000	93.031	173.8091
700.000000	92.962	174.3694
710.000000	92.894	174.9507
720.000000	92.829	175.5534
730.000000	92.767	176.1760
740.000000	92.707	176.8159
750.000000	92.651	177.4702
762.000000	92.586	178.2750
775.000000	92.522	179.1708
788.000000	92.464	-179.9041
800.000000	92.415	-179.0182
812.000000	92.371	-178.1132
825.000000	92.329	-177.1061
838.000000	92.297	-176.0589
850.000000	92.278	-175.0592
862.000000	92.272	-174.0386
875.000000	92.284	-172.9260
885.000000	92.309	-172.0927
900.000000	92.371	-170.9617
912.000000	92.435	-170.2294
925.000000	92.501	-169.6319
938.000000	92.550	-169.1744
950.000000	92.576	-168.7865
962.000000	92.590	-168.3689
975.000000	92.596	-167.8519
988.000000	92.603	-167.2737
1000.000000	92.614	-166.7023
1015.000000	92.638	-165.9621
1030.000000	92.671	-165.2223
1044.000000	92.709	-164.5444
1060.000000	92.761	-163.7849
1075.000000	92.815	-163.1017
1090.000000	92.875	-162.4583
1106.000000	92.942	-161.8142
1120.000000	93.004	-161.2813
1138.000000	93.087	-160.6428
1150.000000	93.144	-160.2538
1172.000000	93.255	-159.6273
1180.000000	93.296	-159.4301
1206.000000	93.432	-158.9099
1220.000000	93.505	-158.7144
1241.000000	93.610	-158.5564
1250.000000	93.653	-158.5475
1265.000000	93.716	-158.6173
1280.000000	93.767	-158.7902
1315.000000	93.795	-159.4709
1320.000000	93.785	-159.5716
1340.000000	93.712	-159.8670
1360.000000	93.596	-159.8513
1380.000000	93.466	-159.4212
1400.000000	93.354	-158.6148
1430.000000	93.256	-157.0149
1450.000000	93.240	-155.8904
1475.000000	93.260	-154.5563
1500.000000	93.306	-153.3457
1525.000000	93.365	-152.2521
1550.000000	93.429	-151.2614
1575.000000	93.496	-150.3546
1600.000000	93.564	-149.5117
1625.000000	93.630	-148.7200
1650.000000	93.694	-147.9631
1675.000000	93.755	-147.2248
1700.000000	93.814	-146.4999
1725.000000	93.871	-145.7807
1750.000000	93.927	-145.0508
1775.000000	93.982	-144.2857
1800.000000	94.039	-143.4604
1825.000000	94.106	-142.5619
1850.000000	94.193	-141.6133
1875.000000	94.308	-140.6893
1900.000000	94.445	-139.8989
1925.000000	94.590	-139.3068
1950.000000	94.727	-138.8885
1975.000000	94.848	-138.5720
2000.000000	94.956	-138.2930
2030.000000	95.070	-137.9596
2060.000000	95.176	-137.6175
2090.000000	95.279	-137.2730
2120.000000	95.380	-136.9304
2140.000000	95.447	-136.7045
2180.000000	95.578	-136.2694
2200.000000	95.643	-136.0636
2240.000000	95.770	-135.6691
2270.000000	95.865	-135.3877
2300.000000	95.958	-135.1216
2330.000000	96.050	-134.8682
2360.000000	96.140	-134.6265
2400.000000	96.257	-134.3193
2430.000000	96.341	-134.0911
2470.000000	96.451	-133.7794
2500.000000	96.533	-133.5379
2540.000000	96.644	-133.2031
2580.000000	96.760	-132.8481
2620.000000	96.887	-132.4710
2650.000000	96.993	-132.2023
2690.000000	97.152	-131.9512
2720.000000	97.277	-131.9037
2760.000000	97.432	-132.0368
2800.000000	97.561	-132.3136
2850.000000	97.682	-132.6919
2900.000000	97.768	-132.9566
2950.000000	97.841	-133.0286
3000.000000	97.925	-132.9256
3040.000000	98.015	-132.8132
3070.000000	98.094	-132.7866
3110.000000	98.204	-132.8981
3150.000000	98.300	-133.1795
3200.000000	98.381	-133.6590
3250.000000	98.421	-134.1277
3300.000000	98.437	-134.4925
3350.000000	98.441	-134.7397
3400.000000	98.441	-134.8876
3450.000000	98.439	-134.9462
3500.000000	98.437	-134.9263
3550.000000	98.439	-134.8147
3600.000000	98.454	-134.6271
3650.000000	98.487	-134.4439
3700.000000	98.531	-134.3401
3750.000000	98.574	-134.3321
3820.000000	98.619	-134.4178
3870.000000	98.639	-134.4926
3950.000000	98.650	-134.5504
4000.000000	98.649	-134.5068
4060.000000	98.651	-134.3615
4120.000000	98.662	-134.1413
4180.000000	98.684	-133.8890
4250.000000	98.724	-133.6142
4310.000000	98.768	-133.4517
4370.000000	98.816	-133.4461
4440.000000	98.831	-133.7167
4500.000000	98.751	-133.7812
4550.000000	98.663	-133.1394
4620.000000	98.680	-131.6211
4680.000000	98.787	-130.6331
4750.000000	98.942	-129.7256
4820.000000	99.137	-129.0951
4870.000000	99.282	-128.8586
4940.000000	99.479	-128.7214
5000.000000	99.646	-128.7254
5080.000000	99.869	-128.9014
5150.000000	100.064	-129.2246
5220.000000	100.259	-129.7072
5300.000000	100.480	-130.4811
5380.000000	100.693	-131.5209
5450.000000	100.863	-132.6431
5520.000000	101.014	-133.9374
5600.000000	101.159	-135.6042
5700.000000	101.291	-137.9160
5800.000000	101.362	-140.4073
5900.000000	101.367	-142.9881
6000.000000	101.309	-145.5707
6080.000000	101.218	-147.5751
6150.000000	101.108	-149.2406
6220.000000	100.974	-150.7981
6300.000000	100.796	-152.4227
6400.000000	100.543	-154.1782
6500.000000	100.265	-155.5886
6600.000000	99.971	-156.6129
6700.000000	99.678	-157.2475
6800.000000	99.397	-157.5451
6900.000000	99.135	-157.5359
7000.000000	98.899	-157.2361
7100.000000	98.701	-156.6774
7200.000000	98.552	-155.9344
7300.000000	98.455	-155.1077
7400.000000	98.405	-154.2504
7500.000000	98.401	-153.3756
7620.000000	98.465	-152.3419
7750.000000	98.625	-151.3386
7880.000000	98.879	-150.5792
8000.000000	99.188	-150.1932
8120.000000	99.562	-150.2215
8250.000000	100.058	-150.8986
8380.000000	100.662	-152.5119
8500.000000	101.307	-155.1453
8620.000000	102.003	-159.2646
8750.000000	102.729	-165.9184
8850.000000	103.167	-172.7808
9000.000000	103.436	174.5133
9120.000000	103.200	163.4330
9250.000000	102.485	152.2126
9380.000000	101.404	143.0461
9500.000000	100.226	136.7624
9620.000000	98.999	132.3810
9750.000000	97.714	129.3199
9880.000000	96.529	127.4968
10000.000000	95.540	126.5537
10150.000000	94.450	126.0134
10300.000000	93.499	125.9005
10440.000000	92.712	126.0460
10600.000000	91.912	126.4933
10750.000000	91.268	127.1929
10900.000000	90.751	127.9992
11060.000000	90.344	128.6613
11200.000000	90.093	128.8783
11380.000000	89.883	128.5070
11500.000000	89.798	127.7851
11720.000000	89.717	125.3270
11800.000000	89.702	124.0443
12060.000000	89.643	118.2277
12200.000000	89.528	114.1912
12410.000000	89.272	107.9860
12500.000000	89.186	105.1492
12650.000000	89.068	99.6689
12800.000000	88.894	92.9926
13150.000000	87.760	75.0660
13200.000000	87.506	72.6091
13400.000000	86.323	63.6869
13600.000000	84.986	56.2997
13800.000000	83.595	50.3080
14000.000000	82.222	45.5564
14300.000000	80.332	40.1892
14500.000000	79.256	37.2154
14750.000000	78.157	33.4412
15000.000000	77.310	28.7386
15250.000000	76.567	22.9072
15500.000000	75.919	17.0311
15750.000000	75.615	10.7831
16000.000000	75.721	2.1662
16250.000000	75.946	-10.1144
16500.000000	76.146	-25.1467
16750.000000	76.369	-42.9995
17000.000000	76.469	-64.0073
17250.000000	76.321	-87.2976
17500.000000	75.946	-111.7487
17750.000000	75.467	-136.9810
18000.000000	74.981	-163.5433
18250.000000	74.467	167.6863
18500.000000	73.795	136.3561
18750.000000	72.837	102.9596
19000.000000	71.562	68.3129
19250.000000	70.025	32.7766
19500.000000	68.283	-3.2828
19750.000000	66.461	-36.5894
