* Measurement data measured by REW V5.20.13
* Source: Headset (USB-C to 3.5mm Headphone Jack Adapter), MICROPHONE (Master Volume), L, volume: 0.250
* Format: 256k Log Swept Sine, 1 sweep at -12.0 dBFS with no timing reference
* Dated: 09 30, 24 1:33:17 AM
* REW Settings:
*  C-weighting compensation: Off
*  Target level: 75.0 dB
* Note: ; 
* Measurement: Sony XBA-C10 EX11 R
* Smoothing: 1/24 octave
* Frequency Step: 1/48 octave
* Start Frequency: 20.300 Hz
*
* Freq(Hz)	SPL(dB)	Phase(degrees)
20.299999	93.089	-115.5174
20.600000	93.114	-115.9448
20.900000	93.168	-116.6940
21.200001	93.226	-117.3747
21.400000	93.267	-117.8086
21.799999	93.358	-118.7010
22.000000	93.405	-119.1766
22.400000	93.492	-120.1573
22.700001	93.548	-120.8724
23.000000	93.594	-121.5319
23.299999	93.637	-122.1227
23.600000	93.680	-122.6575
24.000000	93.743	-123.3286
24.299999	93.793	-123.8402
24.700001	93.859	-124.5586
25.000000	93.906	-125.1139
25.400000	93.962	-125.8385
25.799999	94.015	-126.5071
26.200001	94.070	-127.1197
26.500000	94.115	-127.5657
26.900000	94.176	-128.1755
27.200001	94.221	-128.6560
27.600000	94.275	-129.3185
28.000000	94.320	-129.9753
28.500000	94.368	-130.7518
29.000000	94.412	-131.4846
29.500000	94.454	-132.2019
30.000000	94.493	-132.9048
30.400000	94.527	-133.4452
30.700001	94.556	-133.8397
31.100000	94.602	-134.3694
31.500000	94.649	-134.9159
32.000000	94.699	-135.5962
32.500000	94.731	-136.1946
33.000000	94.756	-136.6925
33.500000	94.788	-137.2265
34.000000	94.825	-137.9867
34.500000	94.842	-138.9670
35.000000	94.831	-139.9108
35.500000	94.819	-140.5161
36.000000	94.846	-140.7507
36.500000	94.923	-140.8591
37.000000	95.014	-141.1109
37.500000	95.080	-141.5515
38.200001	95.111	-142.2463
38.700001	95.119	-142.6921
39.500000	95.153	-143.4138
40.000000	95.182	-143.8880
40.599998	95.214	-144.4136
41.200001	95.243	-144.8811
41.799999	95.270	-145.3551
42.500000	95.295	-145.9442
43.099998	95.315	-146.4268
43.700001	95.339	-146.8592
44.400002	95.368	-147.3340
45.000000	95.390	-147.7654
45.500000	95.404	-148.1674
46.200001	95.419	-148.7813
46.799999	95.430	-149.2853
47.500000	95.448	-149.7564
48.200001	95.476	-150.1249
48.700001	95.496	-150.3793
49.400002	95.513	-150.7578
50.000000	95.520	-151.0911
50.799999	95.534	-151.5558
51.500000	95.553	-152.0004
52.200001	95.574	-152.4504
53.000000	95.602	-152.9389
53.799999	95.629	-153.4056
54.500000	95.644	-153.7720
55.200001	95.649	-154.0792
56.000000	95.642	-154.3878
57.000000	95.643	-154.8378
58.000000	95.678	-155.5379
59.000000	95.714	-156.2026
60.000000	95.743	-156.4562
60.799999	95.763	-156.6158
61.500000	95.767	-156.8746
62.200001	95.762	-157.2006
63.000000	95.762	-157.5852
64.000000	95.768	-158.0216
65.000000	95.775	-158.3669
66.000000	95.790	-158.7057
67.000000	95.804	-159.0923
68.000000	95.809	-159.4815
69.000000	95.818	-159.8591
70.000000	95.837	-160.2288
71.000000	95.855	-160.5639
72.000000	95.860	-160.8444
73.000000	95.858	-161.1190
74.000000	95.855	-161.4255
75.000000	95.853	-161.6768
76.199997	95.857	-161.8676
77.500000	95.844	-162.2399
78.800003	95.820	-162.8729
80.000000	95.833	-163.4156
81.199997	95.854	-163.5701
82.500000	95.863	-163.6457
83.800003	95.879	-163.9295
85.000000	95.891	-163.9673
86.199997	95.886	-163.7606
87.500000	95.896	-164.0779
88.500000	95.900	-164.6268
90.000000	95.893	-164.9842
91.199997	95.910	-165.1542
92.500000	95.918	-165.7068
93.800003	95.904	-166.2186
95.000000	95.920	-166.4857
96.199997	95.956	-166.7138
97.500000	95.973	-166.9646
98.800003	95.971	-167.2162
100.000000	95.973	-167.4183
101.500000	95.978	-167.6481
103.000000	95.981	-167.9443
104.400002	95.987	-168.1881
106.000000	95.990	-168.4142
107.500000	95.982	-168.6902
109.000000	95.973	-168.9759
110.599998	95.970	-169.2350
112.000000	95.971	-169.4451
113.800003	95.974	-169.7102
115.000000	95.976	-169.8856
117.199997	95.973	-170.2020
118.000000	95.970	-170.3122
120.599998	95.960	-170.6813
122.000000	95.961	-170.8672
124.099998	95.963	-171.1184
125.000000	95.963	-171.2253
126.500000	95.965	-171.4045
128.000000	95.967	-171.5824
131.500000	95.972	-171.9742
132.000000	95.972	-172.0296
134.000000	95.974	-172.2485
136.000000	95.978	-172.4515
138.000000	95.984	-172.6458
140.000000	95.995	-172.8362
143.000000	95.995	-173.1492
145.000000	95.990	-173.3569
147.500000	95.988	-173.5921
150.000000	95.989	-173.8285
152.500000	95.993	-174.0713
155.000000	95.994	-174.2947
157.500000	95.990	-174.4976
160.000000	95.983	-174.6892
162.500000	95.968	-174.8835
165.000000	95.949	-175.0775
167.500000	95.931	-175.2592
170.000000	95.912	-175.4376
172.500000	95.893	-175.6140
175.000000	95.873	-175.7901
177.500000	95.853	-175.9657
180.000000	95.834	-176.1357
182.500000	95.816	-176.2937
185.000000	95.797	-176.4463
187.500000	95.778	-176.5986
190.000000	95.759	-176.7500
192.500000	95.740	-176.8965
195.000000	95.721	-177.0377
197.500000	95.703	-177.1772
200.000000	95.689	-177.3134
203.000000	95.679	-177.4707
206.000000	95.673	-177.6248
209.000000	95.669	-177.7780
212.000000	95.665	-177.9264
214.000000	95.661	-178.0217
218.000000	95.654	-178.2063
220.000000	95.651	-178.2962
224.000000	95.643	-178.4747
227.000000	95.637	-178.6076
230.000000	95.631	-178.7344
233.000000	95.624	-178.8552
236.000000	95.617	-178.9756
240.000000	95.607	-179.1377
243.000000	95.600	-179.2535
247.000000	95.589	-179.3984
250.000000	95.580	-179.5027
254.000000	95.564	-179.6406
258.000000	95.547	-179.7796
262.000000	95.530	-179.9129
265.000000	95.517	179.9913
269.000000	95.499	179.8669
272.000000	95.486	179.7778
276.000000	95.467	179.6665
280.000000	95.448	179.5591
285.000000	95.425	179.4283
290.000000	95.401	179.3040
295.000000	95.377	179.1813
300.000000	95.352	179.0631
304.000000	95.332	178.9760
307.000000	95.318	178.9121
311.000000	95.298	178.8290
315.000000	95.278	178.7488
320.000000	95.254	178.6525
325.000000	95.231	178.5606
330.000000	95.207	178.4772
335.000000	95.183	178.3982
340.000000	95.158	178.3222
345.000000	95.134	178.2537
350.000000	95.109	178.1920
355.000000	95.083	178.1335
360.000000	95.058	178.0770
365.000000	95.033	178.0254
370.000000	95.007	177.9803
375.000000	94.981	177.9418
382.000000	94.944	177.8933
387.000000	94.919	177.8619
395.000000	94.877	177.8258
400.000000	94.851	177.8071
406.000000	94.821	177.7908
412.000000	94.790	177.7801
418.000000	94.759	177.7723
425.000000	94.723	177.7700
431.000000	94.692	177.7734
437.000000	94.660	177.7807
444.000000	94.623	177.7962
450.000000	94.592	177.8186
455.000000	94.565	177.8412
462.000000	94.528	177.8795
468.000000	94.496	177.9185
475.000000	94.459	177.9688
482.000000	94.422	178.0256
487.000000	94.395	178.0699
494.000000	94.358	178.1380
500.000000	94.326	178.2026
508.000000	94.284	178.2968
515.000000	94.247	178.3895
522.000000	94.210	178.4890
530.000000	94.168	178.6099
538.000000	94.126	178.7412
545.000000	94.090	178.8661
552.000000	94.054	178.9980
560.000000	94.013	179.1579
570.000000	93.964	179.3685
580.000000	93.916	179.5853
590.000000	93.869	179.8149
600.000000	93.823	-179.9414
608.000000	93.787	-179.7398
615.000000	93.757	-179.5583
622.000000	93.726	-179.3717
630.000000	93.691	-179.1550
640.000000	93.647	-178.8802
650.000000	93.603	-178.5964
660.000000	93.559	-178.3021
670.000000	93.518	-177.9969
680.000000	93.477	-177.6770
690.000000	93.436	-177.3451
700.000000	93.398	-177.0048
710.000000	93.361	-176.6545
720.000000	93.326	-176.2936
730.000000	93.292	-175.9224
740.000000	93.260	-175.5409
750.000000	93.230	-175.1508
762.000000	93.198	-174.6772
775.000000	93.166	-174.1583
788.000000	93.138	-173.6283
800.000000	93.116	-173.1311
812.000000	93.096	-172.6322
825.000000	93.077	-172.0947
838.000000	93.062	-171.5645
850.000000	93.053	-171.0824
862.000000	93.046	-170.6087
875.000000	93.043	-170.1047
885.000000	93.042	-169.7248
900.000000	93.043	-169.1743
912.000000	93.045	-168.7500
925.000000	93.050	-168.3037
938.000000	93.056	-167.8697
950.000000	93.064	-167.4805
962.000000	93.073	-167.1013
975.000000	93.083	-166.7045
988.000000	93.095	-166.3234
1000.000000	93.109	-165.9828
1015.000000	93.128	-165.5722
1030.000000	93.150	-165.1810
1044.000000	93.170	-164.8331
1060.000000	93.194	-164.4537
1075.000000	93.217	-164.1182
1090.000000	93.238	-163.8037
1106.000000	93.260	-163.4841
1120.000000	93.278	-163.2156
1138.000000	93.300	-162.8878
1150.000000	93.313	-162.6798
1172.000000	93.335	-162.3151
1180.000000	93.342	-162.1875
1206.000000	93.362	-161.7888
1220.000000	93.370	-161.5794
1241.000000	93.378	-161.2678
1250.000000	93.380	-161.1351
1265.000000	93.383	-160.9135
1280.000000	93.383	-160.6891
1315.000000	93.376	-160.1495
1320.000000	93.375	-160.0690
1340.000000	93.367	-159.7340
1360.000000	93.357	-159.3842
1380.000000	93.347	-159.0249
1400.000000	93.335	-158.6505
1430.000000	93.317	-158.0483
1450.000000	93.305	-157.6206
1475.000000	93.290	-157.0578
1500.000000	93.276	-156.4704
1525.000000	93.264	-155.8619
1550.000000	93.255	-155.2301
1575.000000	93.248	-154.5808
1600.000000	93.243	-153.9168
1625.000000	93.240	-153.2358
1650.000000	93.239	-152.5430
1675.000000	93.242	-151.8414
1700.000000	93.248	-151.1300
1725.000000	93.258	-150.4125
1750.000000	93.271	-149.6957
1775.000000	93.285	-148.9819
1800.000000	93.300	-148.2737
1825.000000	93.313	-147.5632
1850.000000	93.323	-146.8201
1875.000000	93.335	-146.0181
1900.000000	93.352	-145.1472
1925.000000	93.381	-144.2114
1950.000000	93.428	-143.2424
1975.000000	93.494	-142.2991
2000.000000	93.575	-141.4420
2030.000000	93.678	-140.5576
2060.000000	93.775	-139.7840
2090.000000	93.861	-139.0368
2120.000000	93.945	-138.2539
2140.000000	94.003	-137.7034
2180.000000	94.138	-136.5857
2200.000000	94.214	-136.0571
2240.000000	94.378	-135.1208
2270.000000	94.499	-134.5168
2300.000000	94.617	-133.9648
2330.000000	94.731	-133.4337
2360.000000	94.843	-132.9038
2400.000000	94.991	-132.1944
2430.000000	95.105	-131.6609
2470.000000	95.260	-130.9444
2500.000000	95.381	-130.4035
2540.000000	95.549	-129.6750
2580.000000	95.728	-128.9281
2620.000000	95.917	-128.1596
2650.000000	96.069	-127.5612
2690.000000	96.293	-126.7105
2720.000000	96.486	-126.0332
2760.000000	96.794	-125.1521
2800.000000	97.170	-124.4965
2850.000000	97.709	-124.4037
2900.000000	98.241	-125.3416
2950.000000	98.692	-127.0327
3000.000000	99.051	-129.0284
3040.000000	99.292	-130.6788
3070.000000	99.453	-131.9297
3110.000000	99.649	-133.6284
3150.000000	99.822	-135.3880
3200.000000	100.005	-137.7050
3250.000000	100.148	-140.1647
3300.000000	100.248	-142.7553
3350.000000	100.299	-145.4418
3400.000000	100.296	-148.1525
3450.000000	100.238	-150.7824
3500.000000	100.135	-153.2250
3550.000000	100.010	-155.4364
3600.000000	99.884	-157.5099
3650.000000	99.758	-159.6254
3700.000000	99.610	-161.8923
3750.000000	99.413	-164.2606
3820.000000	99.029	-167.4494
3870.000000	98.682	-169.4212
3950.000000	98.034	-171.7271
4000.000000	97.599	-172.5362
4060.000000	97.082	-172.8305
4120.000000	96.608	-172.4509
4180.000000	96.213	-171.6044
4250.000000	95.871	-170.4463
4310.000000	95.658	-169.6131
4370.000000	95.481	-169.0342
4440.000000	95.289	-168.6328
4500.000000	95.122	-168.4479
4550.000000	94.975	-168.3719
4620.000000	94.752	-168.3338
4680.000000	94.539	-168.2934
4750.000000	94.264	-168.1226
4820.000000	93.968	-167.7081
4870.000000	93.753	-167.2128
4940.000000	93.463	-166.2021
5000.000000	93.245	-165.0718
5080.000000	93.021	-163.3692
5150.000000	92.889	-161.9069
5220.000000	92.800	-160.6004
5300.000000	92.730	-159.3330
5380.000000	92.675	-158.2719
5450.000000	92.634	-157.4669
5520.000000	92.595	-156.7407
5600.000000	92.555	-155.9760
5700.000000	92.516	-155.0894
5800.000000	92.493	-154.2761
5900.000000	92.487	-153.5567
6000.000000	92.498	-152.9499
6080.000000	92.518	-152.5433
6150.000000	92.544	-152.2428
6220.000000	92.580	-151.9964
6300.000000	92.636	-151.7891
6400.000000	92.733	-151.6712
6500.000000	92.855	-151.7560
6600.000000	92.995	-152.0995
6700.000000	93.143	-152.7458
6800.000000	93.286	-153.7069
6900.000000	93.412	-154.9390
7000.000000	93.517	-156.3660
7100.000000	93.606	-157.9370
7200.000000	93.683	-159.6543
7300.000000	93.748	-161.5531
7400.000000	93.795	-163.6470
7500.000000	93.817	-165.9137
7620.000000	93.802	-168.8055
7750.000000	93.732	-172.0491
7880.000000	93.606	-175.2861
8000.000000	93.436	-178.1608
8120.000000	93.217	179.1489
8250.000000	92.958	176.4874
8380.000000	92.712	174.0818
8500.000000	92.518	172.0340
8620.000000	92.372	170.0690
8750.000000	92.284	167.9185
8850.000000	92.274	166.1579
9000.000000	92.364	163.1466
9120.000000	92.536	160.2163
9250.000000	92.826	156.2388
9380.000000	93.218	151.0443
9500.000000	93.643	144.7257
9620.000000	94.063	136.4546
9750.000000	94.385	124.8403
9880.000000	94.382	110.5378
10000.000000	93.945	95.8755
10150.000000	92.732	77.9063
10300.000000	90.880	62.7172
10440.000000	88.787	51.9187
10600.000000	86.225	43.2013
10750.000000	83.831	37.7630
10900.000000	81.533	34.2835
11060.000000	79.235	32.1308
11200.000000	77.372	31.1396
11380.000000	75.182	30.5634
11500.000000	73.837	30.3775
11720.000000	71.555	30.0824
11800.000000	70.772	29.9667
12060.000000	68.355	29.5918
12200.000000	67.125	29.3535
12410.000000	65.373	28.8557
12500.000000	64.661	28.5582
12650.000000	63.521	27.9055
12800.000000	62.423	27.0508
13150.000000	59.928	24.7786
13200.000000	59.580	24.5055
13400.000000	58.236	23.7368
13600.000000	57.016	23.3683
13800.000000	55.959	23.1409
14000.000000	55.107	22.8970
14300.000000	54.213	22.0326
14500.000000	53.854	20.9516
14750.000000	53.668	19.0128
15000.000000	53.742	16.1027
15250.000000	54.069	12.3516
15500.000000	54.672	7.8104
15750.000000	55.582	2.1011
16000.000000	56.817	-5.6696
16250.000000	58.331	-16.4117
16500.000000	60.040	-31.4398
16750.000000	61.670	-52.2351
17000.000000	62.806	-79.0772
17250.000000	63.167	-109.6653
17500.000000	62.818	-140.4014
17750.000000	62.090	-169.5775
18000.000000	61.312	162.1924
18250.000000	60.674	133.6024
18500.000000	60.242	103.6260
18750.000000	60.064	71.4048
19000.000000	60.160	35.7798
19250.000000	60.439	-4.5344
19500.000000	60.679	-49.7205
19750.000000	60.686	-94.6187
