* Measurement data measured by REW V5.20.13
* Source: Headset (USB-C to 3.5mm Headphone Jack Adapter), MICROPHONE (Master Volume), L, volume: 0.250
* Format: 256k Log Swept Sine, 1 sweep at -12.0 dBFS with no timing reference
* Dated: 09 30, 24 3:40:53 PM
* REW Settings:
*  C-weighting compensation: Off
*  Target level: 75.0 dB
* Note: ; CP100
* Measurement: Sony MDR-EX500SL EX11 R
* Smoothing: 1/24 octave
* Frequency Step: 1/48 octave
* Start Frequency: 20.300 Hz
*
* Freq(Hz)	SPL(dB)	Phase(degrees)
20.299999	91.820	-72.7907
20.600000	91.892	-73.3689
20.900000	92.040	-74.4173
21.200001	92.184	-75.4637
21.400000	92.278	-76.1789
21.799999	92.461	-77.7066
22.000000	92.548	-78.5186
22.400000	92.704	-80.1569
22.700001	92.803	-81.3141
23.000000	92.892	-82.3476
23.299999	92.978	-83.2422
23.600000	93.067	-84.0208
24.000000	93.196	-84.9518
24.299999	93.298	-85.6346
24.700001	93.433	-86.5769
25.000000	93.529	-87.3134
25.400000	93.645	-88.3195
25.799999	93.747	-89.3372
26.200001	93.835	-90.3617
26.500000	93.892	-91.1256
26.900000	93.956	-92.1080
27.200001	94.001	-92.7913
27.600000	94.072	-93.6209
28.000000	94.171	-94.4145
28.500000	94.338	-95.5315
29.000000	94.525	-96.9269
29.500000	94.687	-98.5031
30.000000	94.806	-99.9815
30.400000	94.880	-100.9683
30.700001	94.933	-101.6032
31.100000	95.005	-102.3903
31.500000	95.077	-103.1907
32.000000	95.159	-104.2552
32.500000	95.228	-105.3279
33.000000	95.296	-106.3261
33.500000	95.375	-107.2482
34.000000	95.464	-108.1412
34.500000	95.549	-109.0269
35.000000	95.625	-109.8914
35.500000	95.693	-110.7298
36.000000	95.758	-111.5680
36.500000	95.826	-112.4367
37.000000	95.894	-113.3378
37.500000	95.958	-114.2412
38.200001	96.038	-115.4444
38.700001	96.087	-116.2419
39.500000	96.158	-117.4305
40.000000	96.205	-118.1368
40.599998	96.273	-118.9720
41.200001	96.348	-119.8200
41.799999	96.414	-120.6623
42.500000	96.467	-121.5578
43.099998	96.508	-122.2484
43.700001	96.564	-122.9901
44.400002	96.647	-124.0402
45.000000	96.713	-125.0141
45.500000	96.751	-125.7298
46.200001	96.786	-126.4817
46.799999	96.812	-127.0094
47.500000	96.841	-127.7577
48.200001	96.862	-128.6718
48.700001	96.878	-129.2927
49.400002	96.920	-130.0106
50.000000	96.971	-130.5870
50.799999	97.023	-131.4501
51.500000	97.050	-132.2129
52.200001	97.086	-132.9089
53.000000	97.131	-133.6341
53.799999	97.157	-134.2509
54.500000	97.177	-134.8321
55.200001	97.216	-135.6833
56.000000	97.281	-136.8555
57.000000	97.376	-137.8530
58.000000	97.447	-138.1662
59.000000	97.459	-138.4480
60.000000	97.461	-139.2218
60.799999	97.474	-140.1179
61.500000	97.487	-140.8926
62.200001	97.492	-141.5663
63.000000	97.488	-142.1958
64.000000	97.500	-142.8384
65.000000	97.536	-143.5298
66.000000	97.565	-144.2528
67.000000	97.590	-144.8812
68.000000	97.618	-145.4987
69.000000	97.631	-146.1247
70.000000	97.637	-146.6909
71.000000	97.659	-147.1999
72.000000	97.695	-147.7977
73.000000	97.713	-148.5133
74.000000	97.716	-149.1967
75.000000	97.727	-149.7973
76.199997	97.747	-150.4522
77.500000	97.765	-151.1416
78.800003	97.781	-151.7654
80.000000	97.799	-152.3846
81.199997	97.798	-153.0836
82.500000	97.795	-153.7329
83.800003	97.808	-154.3091
85.000000	97.824	-154.9051
86.199997	97.838	-155.5770
87.500000	97.866	-156.2002
88.500000	97.899	-156.5808
90.000000	97.918	-157.0814
91.199997	97.904	-157.4539
92.500000	97.887	-157.9845
93.800003	97.884	-158.5396
95.000000	97.889	-159.0542
96.199997	97.889	-159.5188
97.500000	97.894	-160.0181
98.800003	97.893	-160.5228
100.000000	97.893	-160.9372
101.500000	97.902	-161.4819
103.000000	97.897	-162.0119
104.400002	97.892	-162.3887
106.000000	97.912	-162.8107
107.500000	97.937	-163.2784
109.000000	97.914	-163.6050
110.599998	97.866	-164.0995
112.000000	97.888	-164.8495
113.800003	97.947	-165.7212
115.000000	97.928	-166.2040
117.199997	97.820	-166.7984
118.000000	97.787	-166.8842
120.599998	97.770	-167.0914
122.000000	97.796	-167.3190
124.099998	97.789	-167.7766
125.000000	97.781	-168.0748
126.500000	97.787	-168.7849
128.000000	97.814	-169.4855
131.500000	97.876	-170.8763
132.000000	97.886	-171.0738
134.000000	97.952	-171.4370
136.000000	97.958	-171.0519
138.000000	97.853	-171.1372
140.000000	97.798	-171.9033
143.000000	97.824	-172.5988
145.000000	97.830	-172.8551
147.500000	97.810	-173.3314
150.000000	97.779	-173.7481
152.500000	97.762	-174.3479
155.000000	97.745	-175.0182
157.500000	97.685	-175.4367
160.000000	97.672	-175.9469
162.500000	97.686	-176.4563
165.000000	97.650	-176.9413
167.500000	97.595	-177.3605
170.000000	97.557	-177.5791
172.500000	97.545	-177.7303
175.000000	97.501	-177.9690
177.500000	97.438	-178.4597
180.000000	97.420	-178.9632
182.500000	97.424	-179.4109
185.000000	97.406	-179.8267
187.500000	97.372	179.9311
190.000000	97.314	179.7055
192.500000	97.261	179.2453
195.000000	97.251	178.8857
197.500000	97.246	178.7086
200.000000	97.231	178.4454
203.000000	97.204	178.1805
206.000000	97.162	177.8842
209.000000	97.139	177.6466
212.000000	97.093	177.4561
214.000000	97.063	177.2348
218.000000	97.052	176.8030
220.000000	97.046	176.5026
224.000000	97.006	176.0517
227.000000	96.957	175.7398
230.000000	96.906	175.3777
233.000000	96.872	175.0968
236.000000	96.854	174.8888
240.000000	96.824	174.6664
243.000000	96.793	174.4324
247.000000	96.750	174.0998
250.000000	96.716	173.8511
254.000000	96.667	173.6235
258.000000	96.623	173.3846
262.000000	96.581	173.1287
265.000000	96.551	172.9513
269.000000	96.507	172.6742
272.000000	96.472	172.4677
276.000000	96.423	172.2194
280.000000	96.375	172.0303
285.000000	96.319	171.8099
290.000000	96.260	171.5563
295.000000	96.198	171.3520
300.000000	96.138	171.1523
304.000000	96.089	170.9953
307.000000	96.052	170.8724
311.000000	96.005	170.7204
315.000000	95.962	170.5933
320.000000	95.906	170.4523
325.000000	95.849	170.3178
330.000000	95.792	170.1755
335.000000	95.732	170.0361
340.000000	95.671	169.8912
345.000000	95.612	169.7619
350.000000	95.566	169.6705
355.000000	95.522	169.5983
360.000000	95.467	169.5105
365.000000	95.405	169.4506
370.000000	95.345	169.4368
375.000000	95.287	169.4034
382.000000	95.204	169.3757
387.000000	95.140	169.3716
395.000000	95.055	169.3051
400.000000	95.006	169.2909
406.000000	94.941	169.3026
412.000000	94.877	169.3321
418.000000	94.815	169.3683
425.000000	94.742	169.3979
431.000000	94.678	169.4601
437.000000	94.614	169.5460
444.000000	94.543	169.6459
450.000000	94.482	169.7291
455.000000	94.432	169.8051
462.000000	94.363	169.9292
468.000000	94.301	170.0419
475.000000	94.229	170.1851
482.000000	94.159	170.3444
487.000000	94.110	170.4653
494.000000	94.042	170.6443
500.000000	93.985	170.8074
508.000000	93.911	171.0275
515.000000	93.848	171.2281
522.000000	93.785	171.4433
530.000000	93.711	171.7142
538.000000	93.638	172.0089
545.000000	93.576	172.2798
552.000000	93.514	172.5542
560.000000	93.446	172.8708
570.000000	93.365	173.2683
580.000000	93.284	173.6887
590.000000	93.205	174.1513
600.000000	93.126	174.6272
608.000000	93.064	175.0104
615.000000	93.011	175.3613
622.000000	92.958	175.7251
630.000000	92.900	176.1467
640.000000	92.829	176.6835
650.000000	92.759	177.2325
660.000000	92.689	177.8076
670.000000	92.623	178.4030
680.000000	92.559	179.0248
690.000000	92.499	179.6602
700.000000	92.444	-179.7034
710.000000	92.391	-179.0627
720.000000	92.340	-178.3976
730.000000	92.291	-177.7095
740.000000	92.246	-177.0062
750.000000	92.203	-176.2852
762.000000	92.155	-175.4005
775.000000	92.109	-174.4242
788.000000	92.071	-173.4259
800.000000	92.040	-172.4826
812.000000	92.014	-171.5083
825.000000	91.992	-170.4266
838.000000	91.978	-169.3197
850.000000	91.975	-168.2770
862.000000	91.981	-167.2122
875.000000	91.999	-166.0269
885.000000	92.023	-165.0959
900.000000	92.080	-163.6854
912.000000	92.147	-162.5599
925.000000	92.246	-161.3692
938.000000	92.376	-160.2679
950.000000	92.522	-159.4129
962.000000	92.687	-158.7936
975.000000	92.873	-158.4510
988.000000	93.042	-158.4543
1000.000000	93.167	-158.6966
1015.000000	93.269	-159.1487
1030.000000	93.315	-159.5772
1044.000000	93.323	-159.8423
1060.000000	93.309	-159.9497
1075.000000	93.284	-159.8952
1090.000000	93.256	-159.7188
1106.000000	93.224	-159.4042
1120.000000	93.198	-159.0276
1138.000000	93.173	-158.4199
1150.000000	93.164	-157.9593
1172.000000	93.168	-157.0525
1180.000000	93.176	-156.7163
1206.000000	93.218	-155.6472
1220.000000	93.248	-155.0990
1241.000000	93.300	-154.3215
1250.000000	93.324	-154.0035
1265.000000	93.365	-153.4924
1280.000000	93.408	-153.0035
1315.000000	93.509	-151.9430
1320.000000	93.524	-151.7988
1340.000000	93.582	-151.2355
1360.000000	93.641	-150.6947
1380.000000	93.700	-150.1726
1400.000000	93.758	-149.6652
1430.000000	93.842	-148.9288
1450.000000	93.898	-148.4546
1475.000000	93.966	-147.8715
1500.000000	94.034	-147.2984
1525.000000	94.102	-146.7387
1550.000000	94.170	-146.1835
1575.000000	94.237	-145.6331
1600.000000	94.304	-145.0909
1625.000000	94.371	-144.5577
1650.000000	94.438	-144.0325
1675.000000	94.506	-143.5121
1700.000000	94.574	-142.9966
1725.000000	94.643	-142.4865
1750.000000	94.713	-141.9844
1775.000000	94.785	-141.4912
1800.000000	94.858	-141.0070
1825.000000	94.932	-140.5309
1850.000000	95.008	-140.0685
1875.000000	95.084	-139.6248
1900.000000	95.160	-139.1965
1925.000000	95.237	-138.7764
1950.000000	95.313	-138.3624
1975.000000	95.390	-137.9559
2000.000000	95.468	-137.5586
2030.000000	95.564	-137.0970
2060.000000	95.663	-136.6582
2090.000000	95.764	-136.2416
2120.000000	95.867	-135.8461
2140.000000	95.937	-135.5969
2180.000000	96.079	-135.1411
2200.000000	96.151	-134.9380
2240.000000	96.293	-134.5797
2270.000000	96.399	-134.3488
2300.000000	96.504	-134.1489
2330.000000	96.607	-133.9783
2360.000000	96.708	-133.8343
2400.000000	96.841	-133.6826
2430.000000	96.939	-133.6014
2470.000000	97.066	-133.5332
2500.000000	97.158	-133.5096
2540.000000	97.278	-133.5132
2580.000000	97.393	-133.5549
2620.000000	97.503	-133.6299
2650.000000	97.582	-133.7055
2690.000000	97.681	-133.8284
2720.000000	97.751	-133.9365
2760.000000	97.840	-134.1006
2800.000000	97.922	-134.2833
2850.000000	98.012	-134.5225
2900.000000	98.090	-134.7587
2950.000000	98.157	-134.9916
3000.000000	98.211	-135.2076
3040.000000	98.243	-135.3489
3070.000000	98.260	-135.4211
3110.000000	98.276	-135.4513
3150.000000	98.284	-135.3821
3200.000000	98.293	-135.1283
3250.000000	98.321	-134.7045
3300.000000	98.392	-134.2228
3350.000000	98.507	-133.8819
3400.000000	98.647	-133.8713
3450.000000	98.775	-134.2288
3500.000000	98.864	-134.8224
3550.000000	98.910	-135.4737
3600.000000	98.922	-136.0637
3650.000000	98.909	-136.5413
3700.000000	98.880	-136.8962
3750.000000	98.844	-137.1282
3820.000000	98.788	-137.2606
3870.000000	98.751	-137.2337
3950.000000	98.704	-137.0303
4000.000000	98.683	-136.8369
4060.000000	98.669	-136.5646
4120.000000	98.663	-136.2657
4180.000000	98.665	-135.9513
4250.000000	98.675	-135.5564
4310.000000	98.688	-135.1905
4370.000000	98.705	-134.7970
4440.000000	98.731	-134.2719
4500.000000	98.770	-133.7178
4550.000000	98.825	-133.2518
4620.000000	98.926	-132.7003
4680.000000	99.032	-132.3285
4750.000000	99.167	-132.0796
4820.000000	99.298	-131.9731
4870.000000	99.391	-131.9463
4940.000000	99.524	-131.9707
5000.000000	99.641	-132.0602
5080.000000	99.802	-132.2970
5150.000000	99.946	-132.6263
5220.000000	100.090	-133.0818
5300.000000	100.254	-133.7718
5380.000000	100.414	-134.6555
5450.000000	100.546	-135.5951
5520.000000	100.666	-136.6936
5600.000000	100.781	-138.1407
5700.000000	100.881	-140.1967
5800.000000	100.920	-142.4220
5900.000000	100.897	-144.6927
6000.000000	100.816	-146.9172
6080.000000	100.714	-148.6097
6150.000000	100.601	-150.0018
6220.000000	100.469	-151.2959
6300.000000	100.297	-152.6352
6400.000000	100.062	-154.0610
6500.000000	99.811	-155.1810
6600.000000	99.551	-155.9768
6700.000000	99.293	-156.4461
6800.000000	99.050	-156.6243
6900.000000	98.830	-156.5574
7000.000000	98.638	-156.2809
7100.000000	98.481	-155.8345
7200.000000	98.362	-155.2798
7300.000000	98.279	-154.6562
7400.000000	98.234	-153.9745
7500.000000	98.230	-153.2522
7620.000000	98.287	-152.3729
7750.000000	98.429	-151.4740
7880.000000	98.665	-150.7280
8000.000000	98.965	-150.2890
8120.000000	99.341	-150.2250
8250.000000	99.859	-150.7759
8380.000000	100.509	-152.2794
8500.000000	101.222	-154.9080
8620.000000	102.003	-159.2211
8750.000000	102.824	-166.4100
8850.000000	103.324	-173.9789
9000.000000	103.623	171.7973
9120.000000	103.334	159.3860
9250.000000	102.485	147.0198
9380.000000	101.226	137.2227
9500.000000	99.878	130.7433
9620.000000	98.496	126.3684
9750.000000	97.058	123.4242
9880.000000	95.730	121.8182
10000.000000	94.618	121.1852
10150.000000	93.389	121.1788
10300.000000	92.325	121.7458
10440.000000	91.466	122.5888
10600.000000	90.631	123.6766
10750.000000	89.966	124.6619
10900.000000	89.393	125.5461
11060.000000	88.865	126.3475
11200.000000	88.462	126.9533
11380.000000	88.031	127.6710
11500.000000	87.813	128.0627
11720.000000	87.566	128.2021
11800.000000	87.515	127.9748
12060.000000	87.437	126.2337
12200.000000	87.467	124.5515
12410.000000	87.536	120.4925
12500.000000	87.548	118.2307
12650.000000	87.526	113.8761
12800.000000	87.421	108.9425
13150.000000	86.755	96.7639
13200.000000	86.619	95.1337
13400.000000	86.063	89.1040
13600.000000	85.607	83.1534
13800.000000	85.229	75.8115
14000.000000	84.679	66.8168
14300.000000	83.252	53.6782
14500.000000	82.064	46.9543
14750.000000	80.644	40.7196
15000.000000	79.519	35.6128
15250.000000	78.765	30.1279
15500.000000	78.337	23.1782
15750.000000	78.149	13.9823
16000.000000	78.031	1.9772
16250.000000	77.812	-12.1497
16500.000000	77.586	-27.4136
16750.000000	77.526	-44.3984
17000.000000	77.585	-64.3346
17250.000000	77.578	-87.5352
17500.000000	77.365	-113.2461
17750.000000	76.933	-140.3738
18000.000000	76.380	-168.4186
18250.000000	75.796	162.2384
18500.000000	75.165	130.9120
18750.000000	74.388	97.2891
19000.000000	73.366	61.6411
19250.000000	72.057	24.4635
19500.000000	70.474	-13.4464
19750.000000	68.740	-48.3383
