* Measurement data measured by REW V5.20.13
* Source: Headset (USB-C to 3.5mm Headphone Jack Adapter), MICROPHONE (Master Volume), L, volume: 0.250
* Format: 256k Log Swept Sine, 1 sweep at -12.0 dBFS with no timing reference
* Dated: 09 30, 24 12:56:26 AM
* REW Settings:
*  C-weighting compensation: Off
*  Target level: 75.0 dB
* Note: ; 
* Measurement: Sony XBA-10 EX11 R
* Smoothing: 1/24 octave
* Frequency Step: 1/48 octave
* Start Frequency: 20.300 Hz
*
* Freq(Hz)	SPL(dB)	Phase(degrees)
20.299999	91.166	-111.1357
20.600000	91.204	-111.5798
20.900000	91.279	-112.3704
21.200001	91.349	-113.1150
21.400000	91.393	-113.5862
21.799999	91.479	-114.5071
22.000000	91.523	-114.9653
22.400000	91.609	-115.8615
22.700001	91.672	-116.5111
23.000000	91.733	-117.1463
23.299999	91.791	-117.7721
23.600000	91.845	-118.3918
24.000000	91.912	-119.2111
24.299999	91.957	-119.8174
24.700001	92.015	-120.6076
25.000000	92.057	-121.1820
25.400000	92.114	-121.9229
25.799999	92.172	-122.6441
26.200001	92.230	-123.3601
26.500000	92.273	-123.9000
26.900000	92.327	-124.6214
27.200001	92.365	-125.1551
27.600000	92.414	-125.8419
28.000000	92.464	-126.4914
28.500000	92.528	-127.2613
29.000000	92.589	-128.0110
29.500000	92.639	-128.7439
30.000000	92.680	-129.4466
30.400000	92.713	-129.9999
30.700001	92.741	-130.4291
31.100000	92.784	-131.0376
31.500000	92.828	-131.6673
32.000000	92.879	-132.3883
32.500000	92.927	-132.9439
33.000000	92.977	-133.4017
33.500000	93.015	-133.9554
34.000000	93.012	-134.7020
34.500000	92.959	-135.4834
35.000000	92.894	-136.0669
35.500000	92.887	-136.4236
36.000000	92.966	-136.7870
36.500000	93.096	-137.3651
37.000000	93.212	-138.1042
37.500000	93.281	-138.7758
38.200001	93.321	-139.3948
38.700001	93.341	-139.7513
39.500000	93.375	-140.5138
40.000000	93.395	-141.0513
40.599998	93.425	-141.6292
41.200001	93.463	-142.1358
41.799999	93.494	-142.6342
42.500000	93.511	-143.2147
43.099998	93.521	-143.6852
43.700001	93.542	-144.1457
44.400002	93.581	-144.7015
45.000000	93.615	-145.1794
45.500000	93.637	-145.5526
46.200001	93.662	-146.0354
46.799999	93.682	-146.4505
47.500000	93.704	-146.9668
48.200001	93.723	-147.4784
48.700001	93.736	-147.8158
49.400002	93.756	-148.2581
50.000000	93.772	-148.6325
50.799999	93.790	-149.1282
51.500000	93.807	-149.5520
52.200001	93.826	-149.9823
53.000000	93.845	-150.4876
53.799999	93.857	-150.9613
54.500000	93.868	-151.3230
55.200001	93.883	-151.6571
56.000000	93.904	-152.0382
57.000000	93.925	-152.5214
58.000000	93.941	-153.0264
59.000000	93.950	-153.5121
60.000000	93.965	-153.9230
60.799999	93.984	-154.2667
61.500000	93.998	-154.6103
62.200001	94.007	-154.9603
63.000000	94.015	-155.3218
64.000000	94.026	-155.7094
65.000000	94.037	-156.0614
66.000000	94.050	-156.4155
67.000000	94.067	-156.7909
68.000000	94.083	-157.1757
69.000000	94.096	-157.5588
70.000000	94.109	-157.9217
71.000000	94.115	-158.2491
72.000000	94.107	-158.5521
73.000000	94.107	-158.8745
74.000000	94.129	-159.1983
75.000000	94.150	-159.4077
76.199997	94.153	-159.7134
77.500000	94.146	-160.5382
78.800003	94.185	-161.1720
80.000000	94.240	-161.2990
81.199997	94.231	-161.3357
82.500000	94.205	-161.5273
83.800003	94.212	-161.8941
85.000000	94.245	-162.2035
86.199997	94.289	-162.4486
87.500000	94.287	-162.7840
88.500000	94.237	-163.0708
90.000000	94.170	-163.4752
91.199997	94.175	-163.6807
92.500000	94.207	-163.9027
93.800003	94.219	-164.1239
95.000000	94.221	-164.3147
96.199997	94.233	-164.4816
97.500000	94.253	-164.6683
98.800003	94.254	-164.9464
100.000000	94.242	-165.2480
101.500000	94.237	-165.5882
103.000000	94.241	-165.8643
104.400002	94.247	-166.0740
106.000000	94.263	-166.2730
107.500000	94.273	-166.4075
109.000000	94.275	-166.5666
110.599998	94.267	-166.8464
112.000000	94.262	-167.0744
113.800003	94.265	-167.2982
115.000000	94.270	-167.4740
117.199997	94.273	-167.8456
118.000000	94.269	-167.9634
120.599998	94.241	-168.2963
122.000000	94.252	-168.4304
124.099998	94.282	-168.6575
125.000000	94.286	-168.7652
126.500000	94.283	-168.9451
128.000000	94.281	-169.1055
131.500000	94.287	-169.4959
132.000000	94.289	-169.5578
134.000000	94.302	-169.8008
136.000000	94.308	-170.0018
138.000000	94.309	-170.1823
140.000000	94.317	-170.3703
143.000000	94.325	-170.6269
145.000000	94.327	-170.8028
147.500000	94.329	-171.0203
150.000000	94.330	-171.2298
152.500000	94.334	-171.4399
155.000000	94.335	-171.6400
157.500000	94.336	-171.7971
160.000000	94.332	-171.9866
162.500000	94.321	-172.1665
165.000000	94.306	-172.3295
167.500000	94.289	-172.4837
170.000000	94.272	-172.6339
172.500000	94.255	-172.7841
175.000000	94.237	-172.9323
177.500000	94.220	-173.0753
180.000000	94.203	-173.2113
182.500000	94.188	-173.3456
185.000000	94.172	-173.4784
187.500000	94.156	-173.6025
190.000000	94.139	-173.7196
192.500000	94.123	-173.8365
195.000000	94.107	-173.9484
197.500000	94.091	-174.0569
200.000000	94.080	-174.1629
203.000000	94.073	-174.2831
206.000000	94.071	-174.3946
209.000000	94.070	-174.5092
212.000000	94.069	-174.6173
214.000000	94.068	-174.6906
218.000000	94.067	-174.8408
220.000000	94.066	-174.9102
224.000000	94.061	-175.0388
227.000000	94.058	-175.1346
230.000000	94.055	-175.2288
233.000000	94.051	-175.3172
236.000000	94.047	-175.4009
240.000000	94.043	-175.5110
243.000000	94.038	-175.5865
247.000000	94.031	-175.6801
250.000000	94.025	-175.7477
254.000000	94.015	-175.8352
258.000000	94.004	-175.9165
262.000000	93.991	-175.9909
265.000000	93.981	-176.0463
269.000000	93.967	-176.1220
272.000000	93.957	-176.1751
276.000000	93.943	-176.2384
280.000000	93.929	-176.3003
285.000000	93.912	-176.3722
290.000000	93.895	-176.4365
295.000000	93.877	-176.4975
300.000000	93.858	-176.5548
304.000000	93.843	-176.5945
307.000000	93.832	-176.6205
311.000000	93.817	-176.6502
315.000000	93.804	-176.6798
320.000000	93.786	-176.7105
325.000000	93.769	-176.7319
330.000000	93.752	-176.7531
335.000000	93.735	-176.7709
340.000000	93.717	-176.7845
345.000000	93.699	-176.7943
350.000000	93.681	-176.7981
355.000000	93.663	-176.7974
360.000000	93.645	-176.7933
365.000000	93.626	-176.7834
370.000000	93.607	-176.7686
375.000000	93.588	-176.7472
382.000000	93.562	-176.7132
387.000000	93.543	-176.6880
395.000000	93.513	-176.6390
400.000000	93.494	-176.6030
406.000000	93.472	-176.5544
412.000000	93.449	-176.5018
418.000000	93.426	-176.4444
425.000000	93.399	-176.3641
431.000000	93.376	-176.2871
437.000000	93.353	-176.2071
444.000000	93.327	-176.1085
450.000000	93.304	-176.0155
455.000000	93.285	-175.9346
462.000000	93.259	-175.8198
468.000000	93.237	-175.7169
475.000000	93.211	-175.5925
482.000000	93.185	-175.4653
487.000000	93.167	-175.3725
494.000000	93.140	-175.2366
500.000000	93.117	-175.1127
508.000000	93.086	-174.9411
515.000000	93.059	-174.7863
522.000000	93.032	-174.6254
530.000000	93.002	-174.4324
538.000000	92.971	-174.2264
545.000000	92.945	-174.0374
552.000000	92.919	-173.8438
560.000000	92.889	-173.6119
570.000000	92.853	-173.3059
580.000000	92.818	-172.9955
590.000000	92.784	-172.6754
600.000000	92.750	-172.3379
608.000000	92.724	-172.0585
615.000000	92.701	-171.8095
622.000000	92.678	-171.5526
630.000000	92.653	-171.2499
640.000000	92.621	-170.8637
650.000000	92.591	-170.4656
660.000000	92.561	-170.0550
670.000000	92.533	-169.6357
680.000000	92.507	-169.2036
690.000000	92.483	-168.7574
700.000000	92.461	-168.3017
710.000000	92.442	-167.8391
720.000000	92.424	-167.3705
730.000000	92.409	-166.8977
740.000000	92.396	-166.4243
750.000000	92.384	-165.9470
762.000000	92.373	-165.3653
775.000000	92.364	-164.7258
788.000000	92.358	-164.0812
800.000000	92.355	-163.4803
812.000000	92.355	-162.8772
825.000000	92.358	-162.2179
838.000000	92.365	-161.5569
850.000000	92.377	-160.9509
862.000000	92.392	-160.3482
875.000000	92.412	-159.6996
885.000000	92.431	-159.2076
900.000000	92.465	-158.4907
912.000000	92.495	-157.9345
925.000000	92.532	-157.3491
938.000000	92.572	-156.7827
950.000000	92.612	-156.2808
962.000000	92.654	-155.8005
975.000000	92.702	-155.3032
988.000000	92.753	-154.8314
1000.000000	92.803	-154.4207
1015.000000	92.868	-153.9382
1030.000000	92.936	-153.4909
1044.000000	93.000	-153.1047
1060.000000	93.073	-152.7011
1075.000000	93.142	-152.3601
1090.000000	93.209	-152.0533
1106.000000	93.279	-151.7592
1120.000000	93.338	-151.5270
1138.000000	93.411	-151.2656
1150.000000	93.458	-151.1134
1172.000000	93.537	-150.8684
1180.000000	93.565	-150.7886
1206.000000	93.645	-150.5596
1220.000000	93.684	-150.4485
1241.000000	93.737	-150.2889
1250.000000	93.757	-150.2227
1265.000000	93.788	-150.1102
1280.000000	93.815	-149.9892
1315.000000	93.871	-149.6757
1320.000000	93.878	-149.6282
1340.000000	93.905	-149.4305
1360.000000	93.931	-149.2238
1380.000000	93.954	-149.0089
1400.000000	93.975	-148.7836
1430.000000	94.004	-148.4215
1450.000000	94.022	-148.1695
1475.000000	94.043	-147.8387
1500.000000	94.064	-147.4916
1525.000000	94.084	-147.1339
1550.000000	94.103	-146.7635
1575.000000	94.122	-146.3841
1600.000000	94.140	-146.0032
1625.000000	94.156	-145.6204
1650.000000	94.169	-145.2387
1675.000000	94.178	-144.8594
1700.000000	94.182	-144.4687
1725.000000	94.181	-144.0497
1750.000000	94.173	-143.5864
1775.000000	94.162	-143.0555
1800.000000	94.151	-142.4393
1825.000000	94.144	-141.7383
1850.000000	94.146	-140.9635
1875.000000	94.159	-140.1312
1900.000000	94.184	-139.2649
1925.000000	94.221	-138.3870
1950.000000	94.270	-137.5128
1975.000000	94.328	-136.6531
2000.000000	94.394	-135.8159
2030.000000	94.482	-134.8451
2060.000000	94.579	-133.9078
2090.000000	94.682	-133.0039
2120.000000	94.792	-132.1349
2140.000000	94.868	-131.5716
2180.000000	95.028	-130.4774
2200.000000	95.111	-129.9493
2240.000000	95.286	-128.9291
2270.000000	95.422	-128.1926
2300.000000	95.564	-127.4818
2330.000000	95.710	-126.7952
2360.000000	95.862	-126.1270
2400.000000	96.074	-125.2630
2430.000000	96.242	-124.6402
2470.000000	96.480	-123.8486
2500.000000	96.669	-123.2942
2540.000000	96.937	-122.6272
2580.000000	97.222	-122.0565
2620.000000	97.521	-121.5895
2650.000000	97.755	-121.3169
2690.000000	98.080	-121.0699
2720.000000	98.332	-120.9779
2760.000000	98.680	-120.9929
2800.000000	99.040	-121.1838
2850.000000	99.504	-121.6961
2900.000000	99.980	-122.5486
2950.000000	100.464	-123.7875
3000.000000	100.944	-125.4537
3040.000000	101.320	-127.1206
3070.000000	101.592	-128.5756
3110.000000	101.934	-130.7927
3150.000000	102.242	-133.3212
3200.000000	102.565	-136.8927
3250.000000	102.806	-140.8510
3300.000000	102.954	-145.0827
3350.000000	103.004	-149.4504
3400.000000	102.953	-153.8026
3450.000000	102.809	-157.9949
3500.000000	102.583	-161.9155
3550.000000	102.290	-165.4899
3600.000000	101.944	-168.6732
3650.000000	101.559	-171.4494
3700.000000	101.151	-173.8290
3750.000000	100.728	-175.8357
3820.000000	100.128	-178.0771
3870.000000	99.701	-179.3232
3950.000000	99.034	179.2044
4000.000000	98.629	178.5672
4060.000000	98.159	178.0480
4120.000000	97.708	177.7648
4180.000000	97.274	177.6905
4250.000000	96.794	177.8303
4310.000000	96.405	178.1191
4370.000000	96.036	178.5418
4440.000000	95.633	179.1717
4500.000000	95.310	179.8045
4550.000000	95.056	-179.6152
4620.000000	94.724	-178.7426
4680.000000	94.461	-177.9578
4750.000000	94.175	-177.0193
4820.000000	93.911	-176.0702
4870.000000	93.734	-175.3925
4940.000000	93.501	-174.4486
5000.000000	93.312	-173.6474
5080.000000	93.075	-172.5960
5150.000000	92.881	-171.6951
5220.000000	92.698	-170.8151
5300.000000	92.503	-169.8371
5380.000000	92.322	-168.8943
5450.000000	92.173	-168.1024
5520.000000	92.033	-167.3493
5600.000000	91.881	-166.5435
5700.000000	91.701	-165.6161
5800.000000	91.526	-164.7690
5900.000000	91.356	-163.9888
6000.000000	91.187	-163.2574
6080.000000	91.052	-162.6980
6150.000000	90.934	-162.2194
6220.000000	90.818	-161.7442
6300.000000	90.688	-161.2019
6400.000000	90.534	-160.5185
6500.000000	90.386	-159.8209
6600.000000	90.241	-159.0972
6700.000000	90.098	-158.3302
6800.000000	89.961	-157.5040
6900.000000	89.833	-156.6041
7000.000000	89.717	-155.6195
7100.000000	89.621	-154.5653
7200.000000	89.549	-153.4775
7300.000000	89.498	-152.3804
7400.000000	89.468	-151.2670
7500.000000	89.461	-150.1258
7620.000000	89.490	-148.7196
7750.000000	89.574	-147.1788
7880.000000	89.720	-145.6620
8000.000000	89.906	-144.3248
8120.000000	90.136	-143.0972
8250.000000	90.459	-141.9601
8380.000000	90.881	-141.1106
8500.000000	91.370	-140.6868
8620.000000	91.962	-140.7354
8750.000000	92.731	-141.5180
8850.000000	93.416	-142.8188
9000.000000	94.589	-146.3642
9120.000000	95.614	-151.0916
9250.000000	96.710	-158.7496
9380.000000	97.617	-169.4732
9500.000000	98.107	178.1873
9620.000000	98.142	164.6716
9750.000000	97.660	150.5824
9880.000000	96.763	138.5897
10000.000000	95.738	129.7919
10150.000000	94.403	121.4331
10300.000000	93.141	115.2016
10440.000000	92.084	110.7701
10600.000000	91.088	106.8406
10750.000000	90.438	103.2472
10900.000000	89.997	98.5698
11060.000000	89.569	92.0885
11200.000000	89.131	85.4847
11380.000000	88.428	76.2391
11500.000000	87.856	69.8716
11720.000000	86.591	58.4267
11800.000000	86.070	54.4854
12060.000000	84.235	42.9262
12200.000000	83.211	37.5398
12410.000000	81.713	30.4011
12500.000000	81.105	27.6033
12650.000000	80.161	23.1466
12800.000000	79.310	18.7686
13150.000000	77.633	7.7021
13200.000000	77.418	5.9452
13400.000000	76.589	-1.6012
13600.000000	75.772	-9.9786
13800.000000	74.933	-19.1270
14000.000000	74.044	-28.8945
14300.000000	72.574	-44.2429
14500.000000	71.495	-54.6100
14750.000000	70.051	-67.3254
15000.000000	68.548	-79.4992
15250.000000	67.055	-91.0593
15500.000000	65.626	-102.1394
15750.000000	64.296	-112.9429
16000.000000	63.066	-123.7170
16250.000000	61.930	-134.6775
16500.000000	60.891	-146.0150
16750.000000	59.964	-157.9302
17000.000000	59.151	-170.6298
17250.000000	58.434	175.8417
17500.000000	57.819	161.2153
17750.000000	57.330	145.2270
18000.000000	56.962	127.5131
18250.000000	56.702	107.6077
18500.000000	56.538	84.9053
18750.000000	56.421	58.8575
19000.000000	56.247	28.9796
19250.000000	55.909	-4.9094
19500.000000	55.329	-42.0721
19750.000000	54.541	-78.1268
