* Measurement data measured by REW V5.20.13
* Source: Headset (USB-C to 3.5mm Headphone Jack Adapter), MICROPHONE (Master Volume), L, volume: 0.250
* Format: 256k Log Swept Sine, 1 sweep at -12.0 dBFS with no timing reference
* Dated: 09 30, 24 3:26:37 PM
* REW Settings:
*  C-weighting compensation: Off
*  Target level: 75.0 dB
* Note: ; CP100
* Measurement: Sony MH755 EX11 R
* Smoothing: 1/24 octave
* Frequency Step: 1/48 octave
* Start Frequency: 20.300 Hz
*
* Freq(Hz)	SPL(dB)	Phase(degrees)
20.299999	101.273	-133.6493
20.600000	101.294	-134.1832
20.900000	101.336	-135.1308
21.200001	101.376	-136.0168
21.400000	101.403	-136.5782
21.799999	101.456	-137.6876
22.000000	101.483	-138.2496
22.400000	101.535	-139.3701
22.700001	101.570	-140.1930
23.000000	101.601	-140.9959
23.299999	101.630	-141.7768
23.600000	101.655	-142.5386
24.000000	101.686	-143.5330
24.299999	101.708	-144.2690
24.700001	101.734	-145.2400
25.000000	101.753	-145.9590
25.400000	101.777	-146.9011
25.799999	101.800	-147.8224
26.200001	101.823	-148.7257
26.500000	101.839	-149.3941
26.900000	101.858	-150.2750
27.200001	101.871	-150.9266
27.600000	101.886	-151.7796
28.000000	101.899	-152.6113
28.500000	101.913	-153.6226
29.000000	101.926	-154.6117
29.500000	101.935	-155.5841
30.000000	101.940	-156.5356
30.400000	101.941	-157.2765
30.700001	101.942	-157.8198
31.100000	101.944	-158.5308
31.500000	101.946	-159.2316
32.000000	101.949	-160.0987
32.500000	101.951	-160.9554
33.000000	101.950	-161.7958
33.500000	101.946	-162.6164
34.000000	101.939	-163.4165
34.500000	101.931	-164.1947
35.000000	101.923	-164.9488
35.500000	101.915	-165.6819
36.000000	101.909	-166.4033
36.500000	101.901	-167.1200
37.000000	101.890	-167.8280
37.500000	101.875	-168.5162
38.200001	101.852	-169.4367
38.700001	101.835	-170.0731
39.500000	101.809	-171.0829
40.000000	101.792	-171.7156
40.599998	101.772	-172.4756
41.200001	101.750	-173.2225
41.799999	101.727	-173.9315
42.500000	101.700	-174.7029
43.099998	101.675	-175.3477
43.700001	101.646	-175.9991
44.400002	101.609	-176.7556
45.000000	101.584	-177.4050
45.500000	101.567	-177.9669
46.200001	101.541	-178.7666
46.799999	101.508	-179.3860
47.500000	101.471	-179.9768
48.200001	101.444	179.4775
48.700001	101.426	179.0507
49.400002	101.392	178.4173
50.000000	101.352	177.9056
50.799999	101.297	177.2855
51.500000	101.252	176.7410
52.200001	101.209	176.1733
53.000000	101.164	175.5231
53.799999	101.123	174.8856
54.500000	101.086	174.3469
55.200001	101.047	173.8413
56.000000	101.002	173.2971
57.000000	100.943	172.6290
58.000000	100.876	171.9839
59.000000	100.813	171.3547
60.000000	100.756	170.6930
60.799999	100.703	170.2074
61.500000	100.657	169.8480
62.200001	100.616	169.4935
63.000000	100.574	169.0269
64.000000	100.516	168.3967
65.000000	100.456	167.8259
66.000000	100.399	167.3323
67.000000	100.345	166.8706
68.000000	100.290	166.3972
69.000000	100.231	165.9081
70.000000	100.172	165.4232
71.000000	100.111	164.9655
72.000000	100.049	164.5587
73.000000	99.991	164.1677
74.000000	99.930	163.7505
75.000000	99.866	163.3612
76.199997	99.807	162.9108
77.500000	99.754	162.4296
78.800003	99.687	162.0782
80.000000	99.610	161.6692
81.199997	99.519	161.2084
82.500000	99.427	160.8518
83.800003	99.343	160.5444
85.000000	99.283	160.2983
86.199997	99.253	159.9476
87.500000	99.199	159.5072
88.500000	99.169	159.3636
90.000000	99.174	159.0737
91.199997	99.103	158.8138
92.500000	98.958	158.7818
93.800003	98.849	158.4999
95.000000	98.801	157.9694
96.199997	98.766	157.5089
97.500000	98.709	157.1664
98.800003	98.643	156.9115
100.000000	98.586	156.7322
101.500000	98.506	156.4810
103.000000	98.425	156.1808
104.400002	98.353	155.9324
106.000000	98.270	155.6729
107.500000	98.195	155.4454
109.000000	98.122	155.2608
110.599998	98.044	155.0673
112.000000	97.978	154.8620
113.800003	97.891	154.6060
115.000000	97.834	154.4505
117.199997	97.731	154.1954
118.000000	97.695	154.1174
120.599998	97.579	153.8549
122.000000	97.514	153.7092
124.099998	97.421	153.5228
125.000000	97.383	153.4507
126.500000	97.322	153.3357
128.000000	97.262	153.2308
131.500000	97.127	153.0346
132.000000	97.108	153.0072
134.000000	97.033	152.8948
136.000000	96.959	152.7932
138.000000	96.883	152.7142
140.000000	96.809	152.6347
143.000000	96.701	152.5110
145.000000	96.634	152.4488
147.500000	96.557	152.3882
150.000000	96.467	152.3214
152.500000	96.378	152.2548
155.000000	96.296	152.2014
157.500000	96.210	152.2219
160.000000	96.123	152.2302
162.500000	96.032	152.2203
165.000000	95.938	152.2311
167.500000	95.844	152.2513
170.000000	95.753	152.2710
172.500000	95.661	152.2961
175.000000	95.571	152.3354
177.500000	95.482	152.3943
180.000000	95.395	152.4555
182.500000	95.312	152.5071
185.000000	95.230	152.5685
187.500000	95.147	152.6415
190.000000	95.066	152.7186
192.500000	94.986	152.7992
195.000000	94.908	152.8896
197.500000	94.832	152.9868
200.000000	94.761	153.0853
203.000000	94.684	153.2093
206.000000	94.613	153.3390
209.000000	94.545	153.4731
212.000000	94.479	153.6123
214.000000	94.435	153.7063
218.000000	94.349	153.8994
220.000000	94.307	154.0003
224.000000	94.223	154.2068
227.000000	94.162	154.3652
230.000000	94.102	154.5313
233.000000	94.043	154.7048
236.000000	93.984	154.8828
240.000000	93.908	155.1208
243.000000	93.852	155.2949
247.000000	93.779	155.5361
250.000000	93.724	155.7238
254.000000	93.650	155.9801
258.000000	93.577	156.2406
262.000000	93.504	156.5015
265.000000	93.451	156.6997
269.000000	93.381	156.9711
272.000000	93.330	157.1794
276.000000	93.263	157.4600
280.000000	93.197	157.7398
285.000000	93.118	158.0882
290.000000	93.040	158.4412
295.000000	92.963	158.7986
300.000000	92.890	159.1595
304.000000	92.833	159.4557
307.000000	92.791	159.6783
311.000000	92.736	159.9724
315.000000	92.683	160.2682
320.000000	92.618	160.6437
325.000000	92.557	161.0225
330.000000	92.496	161.4020
335.000000	92.437	161.7826
340.000000	92.381	162.1629
345.000000	92.325	162.5450
350.000000	92.271	162.9298
355.000000	92.218	163.3127
360.000000	92.167	163.6967
365.000000	92.117	164.0849
370.000000	92.069	164.4747
375.000000	92.022	164.8635
382.000000	91.958	165.4078
387.000000	91.913	165.7964
395.000000	91.844	166.4181
400.000000	91.802	166.8093
406.000000	91.754	167.2792
412.000000	91.708	167.7493
418.000000	91.663	168.2182
425.000000	91.613	168.7661
431.000000	91.571	169.2350
437.000000	91.530	169.7032
444.000000	91.484	170.2529
450.000000	91.447	170.7241
455.000000	91.416	171.1157
462.000000	91.375	171.6632
468.000000	91.341	172.1316
475.000000	91.302	172.6783
482.000000	91.266	173.2269
487.000000	91.240	173.6185
494.000000	91.206	174.1668
500.000000	91.178	174.6374
508.000000	91.141	175.2633
515.000000	91.111	175.8099
522.000000	91.082	176.3571
530.000000	91.051	176.9828
538.000000	91.021	177.6069
545.000000	90.996	178.1519
552.000000	90.973	178.6986
560.000000	90.948	179.3227
570.000000	90.918	-179.8978
580.000000	90.891	-179.1152
590.000000	90.866	-178.3319
600.000000	90.843	-177.5515
608.000000	90.827	-176.9274
615.000000	90.814	-176.3811
622.000000	90.802	-175.8366
630.000000	90.790	-175.2145
640.000000	90.775	-174.4359
650.000000	90.762	-173.6570
660.000000	90.752	-172.8770
670.000000	90.744	-172.0967
680.000000	90.739	-171.3193
690.000000	90.736	-170.5433
700.000000	90.736	-169.7661
710.000000	90.738	-168.9881
720.000000	90.742	-168.2120
730.000000	90.748	-167.4423
740.000000	90.758	-166.6756
750.000000	90.769	-165.9105
762.000000	90.787	-164.9973
775.000000	90.810	-164.0121
788.000000	90.838	-163.0365
800.000000	90.867	-162.1416
812.000000	90.899	-161.2537
825.000000	90.936	-160.3035
838.000000	90.978	-159.3660
850.000000	91.021	-158.5132
862.000000	91.068	-157.6760
875.000000	91.123	-156.7894
885.000000	91.168	-156.1211
900.000000	91.240	-155.1441
912.000000	91.301	-154.3871
925.000000	91.371	-153.5939
938.000000	91.444	-152.8282
950.000000	91.514	-152.1463
962.000000	91.586	-151.4892
975.000000	91.666	-150.8054
988.000000	91.749	-150.1527
1000.000000	91.827	-149.5787
1015.000000	91.928	-148.8981
1030.000000	92.032	-148.2573
1044.000000	92.130	-147.6951
1060.000000	92.242	-147.0947
1075.000000	92.346	-146.5708
1090.000000	92.449	-146.0827
1106.000000	92.557	-145.5996
1120.000000	92.650	-145.2066
1138.000000	92.767	-144.7386
1150.000000	92.844	-144.4481
1172.000000	92.980	-143.9558
1180.000000	93.028	-143.7877
1206.000000	93.178	-143.2767
1220.000000	93.256	-143.0215
1241.000000	93.369	-142.6603
1250.000000	93.416	-142.5124
1265.000000	93.491	-142.2740
1280.000000	93.564	-142.0449
1315.000000	93.726	-141.5366
1320.000000	93.749	-141.4667
1340.000000	93.835	-141.1920
1360.000000	93.919	-140.9259
1380.000000	93.998	-140.6667
1400.000000	94.074	-140.4130
1430.000000	94.180	-140.0374
1450.000000	94.245	-139.7845
1475.000000	94.318	-139.4492
1500.000000	94.382	-139.0611
1525.000000	94.439	-138.5688
1550.000000	94.500	-137.9206
1575.000000	94.582	-137.1281
1600.000000	94.700	-136.3034
1625.000000	94.850	-135.6044
1650.000000	95.015	-135.1244
1675.000000	95.179	-134.8551
1700.000000	95.335	-134.7415
1725.000000	95.480	-134.7396
1750.000000	95.618	-134.8358
1775.000000	95.747	-135.0403
1800.000000	95.867	-135.3766
1825.000000	95.971	-135.8721
1850.000000	96.051	-136.5556
1875.000000	96.089	-137.4488
1900.000000	96.061	-138.5236
1925.000000	95.934	-139.6217
1950.000000	95.682	-140.3798
1975.000000	95.319	-140.2825
2000.000000	94.923	-138.9300
2030.000000	94.568	-135.7597
2060.000000	94.468	-131.8315
2090.000000	94.600	-128.1860
2120.000000	94.861	-125.2816
2140.000000	95.063	-123.7483
2180.000000	95.477	-121.3632
2200.000000	95.681	-120.3846
2240.000000	96.092	-118.6517
2270.000000	96.416	-117.5038
2300.000000	96.761	-116.5302
2330.000000	97.124	-115.8103
2360.000000	97.495	-115.3996
2400.000000	97.976	-115.3253
2430.000000	98.312	-115.5578
2470.000000	98.722	-116.1281
2500.000000	99.000	-116.6750
2540.000000	99.341	-117.4797
2580.000000	99.654	-118.3166
2620.000000	99.951	-119.1780
2650.000000	100.167	-119.8572
2690.000000	100.446	-120.8386
2720.000000	100.646	-121.6424
2760.000000	100.897	-122.7972
2800.000000	101.129	-124.0271
2850.000000	101.390	-125.6302
2900.000000	101.623	-127.2474
2950.000000	101.839	-128.8596
3000.000000	102.044	-130.5110
3040.000000	102.200	-131.8944
3070.000000	102.311	-132.9809
3110.000000	102.444	-134.4981
3150.000000	102.556	-136.0799
3200.000000	102.662	-138.1152
3250.000000	102.734	-140.1831
3300.000000	102.777	-142.2700
3350.000000	102.790	-144.3637
3400.000000	102.771	-146.4342
3450.000000	102.721	-148.4443
3500.000000	102.640	-150.3608
3550.000000	102.533	-152.1567
3600.000000	102.404	-153.8063
3650.000000	102.257	-155.2882
3700.000000	102.099	-156.5966
3750.000000	101.935	-157.7365
3820.000000	101.705	-159.0770
3870.000000	101.548	-159.8899
3950.000000	101.310	-161.0308
4000.000000	101.169	-161.6882
4060.000000	101.005	-162.4507
4120.000000	100.842	-163.1974
4180.000000	100.675	-163.9263
4250.000000	100.470	-164.7305
4310.000000	100.285	-165.3540
4370.000000	100.092	-165.8955
4440.000000	99.861	-166.4066
4500.000000	99.660	-166.7337
4550.000000	99.493	-166.9286
4620.000000	99.262	-167.0931
4680.000000	99.067	-167.1432
4750.000000	98.848	-167.1061
4820.000000	98.636	-166.9784
4870.000000	98.491	-166.8419
4940.000000	98.296	-166.6009
5000.000000	98.135	-166.3547
5080.000000	97.929	-165.9802
5150.000000	97.756	-165.6185
5220.000000	97.591	-165.2334
5300.000000	97.411	-164.7713
5380.000000	97.239	-164.2896
5450.000000	97.094	-163.8529
5520.000000	96.953	-163.4007
5600.000000	96.798	-162.8628
5700.000000	96.614	-162.1597
5800.000000	96.441	-161.4237
5900.000000	96.280	-160.6707
6000.000000	96.129	-159.9121
6080.000000	96.015	-159.2980
6150.000000	95.919	-158.7516
6220.000000	95.828	-158.1941
6300.000000	95.732	-157.5393
6400.000000	95.628	-156.6821
6500.000000	95.540	-155.7672
6600.000000	95.471	-154.7914
6700.000000	95.424	-153.7716
6800.000000	95.404	-152.7373
6900.000000	95.412	-151.7111
7000.000000	95.452	-150.7186
7100.000000	95.524	-149.7899
7200.000000	95.632	-148.9649
7300.000000	95.774	-148.2861
7400.000000	95.947	-147.7828
7500.000000	96.153	-147.4774
7620.000000	96.443	-147.4144
7750.000000	96.814	-147.8070
7880.000000	97.239	-148.8171
8000.000000	97.660	-150.4565
8120.000000	98.083	-152.9488
8250.000000	98.527	-156.8118
8380.000000	98.910	-162.0404
8500.000000	99.148	-168.0972
8620.000000	99.211	-175.1474
8750.000000	99.027	176.5837
8850.000000	98.693	170.2220
9000.000000	97.906	161.4404
9120.000000	97.086	155.5002
9250.000000	96.080	150.3299
9380.000000	95.020	146.4229
9500.000000	94.036	143.7956
9620.000000	93.075	141.9503
9750.000000	92.076	140.6707
9880.000000	91.135	139.9864
10000.000000	90.325	139.7713
10150.000000	89.400	139.9316
10300.000000	88.564	140.4347
10440.000000	87.857	141.1113
10600.000000	87.127	142.0364
10750.000000	86.512	142.9820
10900.000000	85.956	143.9511
11060.000000	85.421	144.9698
11200.000000	84.997	145.8208
11380.000000	84.500	146.8217
11500.000000	84.190	147.4424
11720.000000	83.654	148.6109
11800.000000	83.472	149.0754
12060.000000	82.948	150.7799
12200.000000	82.724	151.7964
12410.000000	82.485	153.3512
12500.000000	82.427	153.9891
12650.000000	82.392	154.9636
12800.000000	82.429	155.7774
13150.000000	82.761	156.7883
13200.000000	82.835	156.8086
13400.000000	83.199	156.5182
13600.000000	83.672	155.5565
13800.000000	84.264	153.7802
14000.000000	84.980	151.0065
14300.000000	86.306	144.4423
14500.000000	87.357	137.8788
14750.000000	88.782	126.1468
15000.000000	90.120	109.3452
15250.000000	91.000	87.0186
15500.000000	91.078	61.1308
15750.000000	90.323	35.6538
16000.000000	89.045	13.1350
16250.000000	87.644	-6.6384
16500.000000	86.405	-25.1456
16750.000000	85.457	-43.8700
17000.000000	84.811	-64.0361
17250.000000	84.402	-86.6912
17500.000000	84.088	-112.6387
17750.000000	83.661	-142.0465
18000.000000	82.927	-174.0577
18250.000000	81.808	152.9042
18500.000000	80.379	120.0888
18750.000000	78.801	87.6382
19000.000000	77.211	54.7699
19250.000000	75.640	20.4868
19500.000000	74.027	-15.3420
19750.000000	72.378	-49.1506
