* Measurement data measured by REW V5.20.13
* Source: Headset (USB-C to 3.5mm Headphone Jack Adapter), MICROPHONE (Master Volume), L, volume: 0.250
* Format: 256k Log Swept Sine, 1 sweep at -12.0 dBFS with no timing reference
* Dated: 10 4, 24 4:54:08 PM
* REW Settings:
*  C-weighting compensation: Off
*  Target level: 75.0 dB
* Note: ; 54 Windows vol, WIDE tips
* Measurement: TangZu YuXuanJi USBC W R
* Smoothing: 1/24 octave
* Frequency Step: 1/48 octave
* Start Frequency: 20.300 Hz
*
* Freq(Hz)	SPL(dB)	Phase(degrees)
20.299999	96.417	-122.8075
20.600000	96.446	-123.3791
20.900000	96.503	-124.3980
21.200001	96.554	-125.3635
21.400000	96.583	-125.9828
21.799999	96.633	-127.2151
22.000000	96.654	-127.8363
22.400000	96.689	-129.0532
22.700001	96.712	-129.9205
23.000000	96.738	-130.7461
23.299999	96.769	-131.5429
23.600000	96.808	-132.3292
24.000000	96.867	-133.3856
24.299999	96.911	-134.1853
24.700001	96.964	-135.2329
25.000000	96.997	-135.9735
25.400000	97.033	-136.8739
25.799999	97.066	-137.6900
26.200001	97.100	-138.4832
26.500000	97.124	-139.1049
26.900000	97.153	-139.9952
27.200001	97.169	-140.7001
27.600000	97.184	-141.6531
28.000000	97.198	-142.5757
28.500000	97.220	-143.6587
29.000000	97.251	-144.6865
29.500000	97.281	-145.6805
30.000000	97.301	-146.6263
30.400000	97.311	-147.3401
30.700001	97.316	-147.8600
31.100000	97.323	-148.5598
31.500000	97.330	-149.2881
32.000000	97.334	-150.2301
32.500000	97.334	-151.1468
33.000000	97.337	-151.9813
33.500000	97.346	-152.7428
34.000000	97.359	-153.4856
34.500000	97.366	-154.2454
35.000000	97.362	-155.0174
35.500000	97.351	-155.7874
36.000000	97.339	-156.5576
36.500000	97.332	-157.3303
37.000000	97.329	-158.0848
37.500000	97.330	-158.7902
38.200001	97.334	-159.6840
38.700001	97.334	-160.2880
39.500000	97.320	-161.2533
40.000000	97.303	-161.8510
40.599998	97.283	-162.5507
41.200001	97.269	-163.2396
41.799999	97.259	-163.9340
42.500000	97.246	-164.7522
43.099998	97.229	-165.4408
43.700001	97.210	-166.1009
44.400002	97.187	-166.8322
45.000000	97.168	-167.4311
45.500000	97.151	-167.9148
46.200001	97.126	-168.5780
46.799999	97.103	-169.1362
47.500000	97.075	-169.7585
48.200001	97.043	-170.3488
48.700001	97.019	-170.7759
49.400002	96.985	-171.4191
50.000000	96.962	-172.0145
50.799999	96.947	-172.8123
51.500000	96.937	-173.3744
52.200001	96.920	-173.6755
53.000000	96.898	-173.8470
53.799999	96.866	-174.2649
54.500000	96.818	-174.9195
55.200001	96.762	-175.6169
56.000000	96.719	-176.2726
57.000000	96.686	-176.9149
58.000000	96.640	-177.4838
59.000000	96.590	-178.1063
60.000000	96.544	-178.7644
60.799999	96.509	-179.2410
61.500000	96.478	-179.6214
62.200001	96.446	-179.9896
63.000000	96.408	179.5883
64.000000	96.361	179.0620
65.000000	96.313	178.5598
66.000000	96.266	178.0825
67.000000	96.220	177.6180
68.000000	96.173	177.1816
69.000000	96.127	176.7621
70.000000	96.080	176.3395
71.000000	96.031	175.9235
72.000000	95.983	175.5215
73.000000	95.934	175.1346
74.000000	95.886	174.7634
75.000000	95.838	174.4098
76.199997	95.782	173.9987
77.500000	95.721	173.5739
78.800003	95.661	173.1799
80.000000	95.606	172.8312
81.199997	95.550	172.4922
82.500000	95.487	172.1459
83.800003	95.426	171.8152
85.000000	95.372	171.5101
86.199997	95.320	171.2200
87.500000	95.263	170.9402
88.500000	95.219	170.7375
90.000000	95.152	170.4504
91.199997	95.099	170.2390
92.500000	95.049	169.9913
93.800003	95.004	169.7221
95.000000	94.956	169.4926
96.199997	94.904	169.2886
97.500000	94.851	169.0801
98.800003	94.798	168.8877
100.000000	94.749	168.7041
101.500000	94.689	168.4774
103.000000	94.631	168.2873
104.400002	94.577	168.1119
106.000000	94.513	167.9100
107.500000	94.455	167.7542
109.000000	94.399	167.6111
110.599998	94.340	167.4468
112.000000	94.288	167.3008
113.800003	94.223	167.1373
115.000000	94.180	167.0447
117.199997	94.102	166.8801
118.000000	94.073	166.8167
120.599998	93.979	166.6473
122.000000	93.933	166.6158
124.099998	93.869	166.5500
125.000000	93.840	166.4858
126.500000	93.792	166.3539
128.000000	93.752	166.2594
131.500000	93.660	166.2618
132.000000	93.645	166.2419
134.000000	93.591	166.1228
136.000000	93.538	166.0312
138.000000	93.484	165.9676
140.000000	93.432	165.9126
143.000000	93.349	165.8621
145.000000	93.293	165.8383
147.500000	93.229	165.8321
150.000000	93.167	165.8409
152.500000	93.101	165.8340
155.000000	93.040	165.8461
157.500000	92.979	165.8979
160.000000	92.912	165.9485
162.500000	92.836	165.9681
165.000000	92.755	166.0167
167.500000	92.678	166.1262
170.000000	92.607	166.2642
172.500000	92.540	166.4001
175.000000	92.477	166.5317
177.500000	92.418	166.6546
180.000000	92.359	166.7660
182.500000	92.298	166.8697
185.000000	92.237	166.9675
187.500000	92.177	167.0678
190.000000	92.119	167.1974
192.500000	92.063	167.3423
195.000000	92.009	167.4691
197.500000	91.958	167.5782
200.000000	91.912	167.6868
203.000000	91.867	167.8416
206.000000	91.824	167.9986
209.000000	91.780	168.1516
212.000000	91.740	168.3054
214.000000	91.714	168.4102
218.000000	91.661	168.6332
220.000000	91.631	168.7457
224.000000	91.571	168.9830
227.000000	91.532	169.1717
230.000000	91.496	169.3621
233.000000	91.462	169.5539
236.000000	91.428	169.7402
240.000000	91.385	169.9796
243.000000	91.354	170.1641
247.000000	91.312	170.4195
250.000000	91.280	170.6106
254.000000	91.234	170.8581
258.000000	91.187	171.0964
262.000000	91.141	171.3364
265.000000	91.107	171.5261
269.000000	91.061	171.7895
272.000000	91.027	171.9857
276.000000	90.986	172.2682
280.000000	90.944	172.5496
285.000000	90.894	172.8835
290.000000	90.845	173.2327
295.000000	90.796	173.5856
300.000000	90.750	173.9355
304.000000	90.715	174.2241
307.000000	90.690	174.4377
311.000000	90.657	174.7178
315.000000	90.624	175.0085
320.000000	90.585	175.3806
325.000000	90.550	175.7449
330.000000	90.515	176.1087
335.000000	90.481	176.4744
340.000000	90.449	176.8422
345.000000	90.417	177.2075
350.000000	90.387	177.5767
355.000000	90.357	177.9431
360.000000	90.330	178.2966
365.000000	90.303	178.6569
370.000000	90.277	179.0310
375.000000	90.252	179.4095
382.000000	90.218	179.9265
387.000000	90.195	-179.7091
395.000000	90.159	-179.1226
400.000000	90.139	-178.7540
406.000000	90.116	-178.3141
412.000000	90.093	-177.8765
418.000000	90.071	-177.4348
425.000000	90.049	-176.9224
431.000000	90.030	-176.4837
437.000000	90.012	-176.0389
444.000000	89.992	-175.5253
450.000000	89.977	-175.0920
455.000000	89.965	-174.7306
462.000000	89.949	-174.2235
468.000000	89.935	-173.7885
475.000000	89.921	-173.2790
482.000000	89.907	-172.7723
487.000000	89.898	-172.4123
494.000000	89.887	-171.9037
500.000000	89.878	-171.4692
508.000000	89.867	-170.8955
515.000000	89.859	-170.3914
522.000000	89.852	-169.8858
530.000000	89.845	-169.3056
538.000000	89.840	-168.7262
545.000000	89.836	-168.2246
552.000000	89.832	-167.7260
560.000000	89.831	-167.1535
570.000000	89.830	-166.4364
580.000000	89.832	-165.7242
590.000000	89.836	-165.0088
600.000000	89.842	-164.2885
608.000000	89.849	-163.7157
615.000000	89.856	-163.2181
622.000000	89.864	-162.7202
630.000000	89.875	-162.1512
640.000000	89.893	-161.4478
650.000000	89.915	-160.7599
660.000000	89.944	-160.1044
670.000000	89.980	-159.5271
680.000000	90.013	-159.1145
690.000000	90.010	-158.8606
700.000000	89.953	-158.4204
710.000000	89.897	-157.5313
720.000000	89.892	-156.4691
730.000000	89.919	-155.4990
740.000000	89.957	-154.6448
750.000000	89.997	-153.8569
762.000000	90.046	-152.9537
775.000000	90.101	-152.0078
788.000000	90.159	-151.0877
800.000000	90.214	-150.2533
812.000000	90.272	-149.4282
825.000000	90.338	-148.5489
838.000000	90.410	-147.6908
850.000000	90.481	-146.9252
862.000000	90.558	-146.1925
875.000000	90.648	-145.4555
885.000000	90.719	-144.9521
900.000000	90.821	-144.3364
912.000000	90.883	-143.9307
925.000000	90.925	-143.4356
938.000000	90.958	-142.7624
950.000000	91.002	-142.0127
962.000000	91.065	-141.2354
975.000000	91.149	-140.4349
988.000000	91.242	-139.6981
1000.000000	91.334	-139.0694
1015.000000	91.453	-138.3423
1030.000000	91.576	-137.6716
1044.000000	91.691	-137.0908
1060.000000	91.823	-136.4713
1075.000000	91.945	-135.9283
1090.000000	92.067	-135.4238
1106.000000	92.196	-134.9240
1120.000000	92.307	-134.5129
1138.000000	92.448	-134.0196
1150.000000	92.542	-133.7098
1172.000000	92.710	-133.1777
1180.000000	92.770	-132.9952
1206.000000	92.963	-132.4382
1220.000000	93.064	-132.1595
1241.000000	93.215	-131.7633
1250.000000	93.278	-131.6010
1265.000000	93.383	-131.3396
1280.000000	93.485	-131.0892
1315.000000	93.720	-130.5390
1320.000000	93.754	-130.4644
1340.000000	93.885	-130.1728
1360.000000	94.015	-129.8915
1380.000000	94.145	-129.6241
1400.000000	94.273	-129.3704
1430.000000	94.464	-129.0088
1450.000000	94.591	-128.7798
1475.000000	94.750	-128.5103
1500.000000	94.909	-128.2587
1525.000000	95.068	-128.0236
1550.000000	95.227	-127.8077
1575.000000	95.386	-127.6144
1600.000000	95.546	-127.4487
1625.000000	95.705	-127.3080
1650.000000	95.864	-127.1910
1675.000000	96.024	-127.1036
1700.000000	96.184	-127.0477
1725.000000	96.345	-127.0211
1750.000000	96.506	-127.0262
1775.000000	96.667	-127.0643
1800.000000	96.829	-127.1353
1825.000000	96.990	-127.2400
1850.000000	97.152	-127.3761
1875.000000	97.314	-127.5450
1900.000000	97.476	-127.7515
1925.000000	97.639	-127.9993
1950.000000	97.803	-128.2948
1975.000000	97.966	-128.6442
2000.000000	98.127	-129.0495
2030.000000	98.315	-129.6066
2060.000000	98.497	-130.2325
2090.000000	98.672	-130.9210
2120.000000	98.842	-131.6679
2140.000000	98.951	-132.1991
2180.000000	99.161	-133.3396
2200.000000	99.260	-133.9471
2240.000000	99.447	-135.2328
2270.000000	99.576	-136.2562
2300.000000	99.696	-137.3251
2330.000000	99.806	-138.4313
2360.000000	99.904	-139.5707
2400.000000	100.017	-141.1352
2430.000000	100.088	-142.3347
2470.000000	100.164	-143.9564
2500.000000	100.208	-145.1819
2540.000000	100.249	-146.8162
2580.000000	100.270	-148.4372
2620.000000	100.271	-150.0307
2650.000000	100.259	-151.1989
2690.000000	100.227	-152.7120
2720.000000	100.193	-153.8076
2760.000000	100.134	-155.2116
2800.000000	100.061	-156.5475
2850.000000	99.952	-158.1168
2900.000000	99.826	-159.5676
2950.000000	99.689	-160.8967
3000.000000	99.540	-162.0994
3040.000000	99.415	-162.9747
3070.000000	99.319	-163.5828
3110.000000	99.186	-164.3309
3150.000000	99.048	-165.0090
3200.000000	98.864	-165.7610
3250.000000	98.675	-166.4135
3300.000000	98.485	-166.9744
3350.000000	98.297	-167.4498
3400.000000	98.109	-167.8448
3450.000000	97.922	-168.1704
3500.000000	97.737	-168.4327
3550.000000	97.553	-168.6335
3600.000000	97.370	-168.7726
3650.000000	97.188	-168.8516
3700.000000	97.007	-168.8678
3750.000000	96.829	-168.8160
3820.000000	96.587	-168.6249
3870.000000	96.419	-168.4101
3950.000000	96.162	-167.9500
4000.000000	96.010	-167.5949
4060.000000	95.837	-167.0996
4120.000000	95.674	-166.5248
4180.000000	95.527	-165.8694
4250.000000	95.385	-165.0358
4310.000000	95.291	-164.3288
4370.000000	95.221	-163.7032
4440.000000	95.152	-163.1115
4500.000000	95.100	-162.6891
4550.000000	95.062	-162.4077
4620.000000	95.010	-162.1413
4680.000000	94.962	-162.0007
4750.000000	94.902	-161.9143
4820.000000	94.837	-161.9180
4870.000000	94.787	-161.9842
4940.000000	94.706	-162.1720
5000.000000	94.623	-162.4192
5080.000000	94.486	-162.8574
5150.000000	94.334	-163.3164
5220.000000	94.145	-163.7937
5300.000000	93.877	-164.2675
5380.000000	93.554	-164.5373
5450.000000	93.228	-164.4910
5520.000000	92.872	-164.0823
5600.000000	92.447	-163.0847
5700.000000	91.933	-161.0027
5800.000000	91.486	-158.1023
5900.000000	91.143	-154.6329
6000.000000	90.913	-150.8545
6080.000000	90.808	-147.7463
6150.000000	90.768	-145.0265
6220.000000	90.773	-142.3305
6300.000000	90.833	-139.2948
6400.000000	90.990	-135.6145
6500.000000	91.228	-132.1086
6600.000000	91.539	-128.8034
6700.000000	91.922	-125.7212
6800.000000	92.376	-122.8826
6900.000000	92.905	-120.3308
7000.000000	93.513	-118.1269
7100.000000	94.207	-116.3573
7200.000000	94.990	-115.1436
7300.000000	95.863	-114.6532
7400.000000	96.818	-115.1129
7500.000000	97.831	-116.7993
7620.000000	99.057	-120.8841
7750.000000	100.231	-128.3053
7880.000000	101.011	-138.5677
8000.000000	101.225	-149.1759
8120.000000	100.953	-158.9847
8250.000000	100.302	-167.2365
8380.000000	99.548	-172.9053
8500.000000	98.918	-176.6089
8620.000000	98.387	-179.5464
8750.000000	97.915	177.7532
8850.000000	97.629	175.8613
9000.000000	97.346	172.9062
9120.000000	97.239	169.9784
9250.000000	97.196	165.7287
9380.000000	97.140	159.9630
9500.000000	96.969	153.2096
9620.000000	96.579	145.4349
9750.000000	95.831	136.7569
9880.000000	94.740	128.9636
10000.000000	93.493	123.3306
10150.000000	91.756	118.8045
10300.000000	89.977	116.9007
10440.000000	88.385	117.0727
10600.000000	86.723	119.0513
10750.000000	85.362	122.2071
10900.000000	84.224	126.2366
11060.000000	83.291	130.9859
11200.000000	82.715	134.9618
11380.000000	82.224	139.0818
11500.000000	81.973	141.0742
11720.000000	81.529	143.5508
11800.000000	81.354	144.2538
12060.000000	80.723	146.6219
12200.000000	80.371	148.3840
12410.000000	79.982	152.0390
12500.000000	79.916	153.8065
12650.000000	79.959	156.6700
12800.000000	80.176	159.2057
13150.000000	81.323	163.0821
13200.000000	81.568	163.3063
13400.000000	82.780	162.8952
13600.000000	84.338	159.3165
13800.000000	86.016	150.4879
14000.000000	87.288	134.6168
14300.000000	87.273	102.7256
14500.000000	85.927	84.8869
14750.000000	83.605	71.1901
15000.000000	81.524	63.7822
15250.000000	80.101	58.3796
15500.000000	79.314	52.1437
15750.000000	78.981	42.8527
16000.000000	78.742	28.5820
16250.000000	78.061	9.1505
16500.000000	76.520	-12.0537
16750.000000	74.110	-30.2359
17000.000000	71.210	-43.4686
17250.000000	68.268	-52.8069
17500.000000	65.557	-59.9869
17750.000000	63.187	-66.3412
18000.000000	61.168	-72.8303
18250.000000	59.468	-80.2675
18500.000000	58.042	-89.4644
18750.000000	56.827	-101.1658
19000.000000	55.735	-115.8663
19250.000000	54.646	-134.0505
19500.000000	53.415	-155.6712
19750.000000	51.985	-177.8741
