* Measurement data measured by REW V5.20.13
* Source: Headset (USB-C to 3.5mm Headphone Jack Adapter), MICROPHONE (Master Volume), L, volume: 0.250
* Format: 256k Log Swept Sine, 1 sweep at -12.0 dBFS with no timing reference
* Dated: 10 4, 24 5:13:29 PM
* REW Settings:
*  C-weighting compensation: Off
*  Target level: 75.0 dB
* Note: ; 54 Windows vol, WIDE tips
* Measurement: TangZu YuXuanJi USBC W L
* Smoothing: 1/24 octave
* Frequency Step: 1/48 octave
* Start Frequency: 20.300 Hz
*
* Freq(Hz)	SPL(dB)	Phase(degrees)
20.299999	94.715	-125.0966
20.600000	94.746	-125.6144
20.900000	94.807	-126.5390
21.200001	94.860	-127.4162
21.400000	94.891	-127.9718
21.799999	94.942	-129.0476
22.000000	94.964	-129.5734
22.400000	95.002	-130.5801
22.700001	95.029	-131.2983
23.000000	95.056	-132.0073
23.299999	95.085	-132.7294
23.600000	95.114	-133.4776
24.000000	95.154	-134.5157
24.299999	95.182	-135.3028
24.700001	95.218	-136.3202
25.000000	95.248	-137.0340
25.400000	95.292	-137.9117
25.799999	95.343	-138.7297
26.200001	95.394	-139.5267
26.500000	95.428	-140.1254
26.900000	95.463	-140.9268
27.200001	95.482	-141.5246
27.600000	95.500	-142.3119
28.000000	95.515	-143.0925
28.500000	95.536	-144.0728
29.000000	95.558	-145.0513
29.500000	95.581	-145.9902
30.000000	95.605	-146.8560
30.400000	95.626	-147.5028
30.700001	95.642	-147.9750
31.100000	95.661	-148.6058
31.500000	95.675	-149.2453
32.000000	95.684	-150.0474
32.500000	95.685	-150.8313
33.000000	95.686	-151.5883
33.500000	95.691	-152.3307
34.000000	95.700	-153.0743
34.500000	95.709	-153.8184
35.000000	95.713	-154.5439
35.500000	95.714	-155.2272
36.000000	95.712	-155.8619
36.500000	95.712	-156.4663
37.000000	95.714	-157.0726
37.500000	95.716	-157.6998
38.200001	95.713	-158.5913
38.700001	95.709	-159.2009
39.500000	95.705	-160.1055
40.000000	95.705	-160.6535
40.599998	95.703	-161.3090
41.200001	95.696	-161.9402
41.799999	95.686	-162.5386
42.500000	95.677	-163.2444
43.099998	95.667	-163.8815
43.700001	95.651	-164.5008
44.400002	95.638	-165.1619
45.000000	95.635	-165.7313
45.500000	95.630	-166.2448
46.200001	95.602	-166.9586
46.799999	95.566	-167.4706
47.500000	95.534	-167.9763
48.200001	95.519	-168.5287
48.700001	95.510	-168.9737
49.400002	95.493	-169.5853
50.000000	95.476	-170.0465
50.799999	95.453	-170.6043
51.500000	95.429	-171.0846
52.200001	95.403	-171.5654
53.000000	95.377	-172.1291
53.799999	95.356	-172.7068
54.500000	95.336	-173.1847
55.200001	95.310	-173.6172
56.000000	95.276	-174.0839
57.000000	95.234	-174.6807
58.000000	95.201	-175.2858
59.000000	95.168	-175.8580
60.000000	95.126	-176.3974
60.799999	95.089	-176.8248
61.500000	95.061	-177.2032
62.200001	95.039	-177.5729
63.000000	95.015	-177.9633
64.000000	94.980	-178.4245
65.000000	94.933	-178.8926
66.000000	94.886	-179.3389
67.000000	94.847	-179.7675
68.000000	94.813	179.8139
69.000000	94.775	179.4017
70.000000	94.732	178.9881
71.000000	94.686	178.6173
72.000000	94.648	178.2800
73.000000	94.616	177.9288
74.000000	94.583	177.5660
75.000000	94.544	177.2165
76.199997	94.492	176.8364
77.500000	94.438	176.4478
78.800003	94.392	176.0684
80.000000	94.347	175.7225
81.199997	94.295	175.3985
82.500000	94.244	175.0531
83.800003	94.195	174.7188
85.000000	94.150	174.4382
86.199997	94.104	174.1572
87.500000	94.056	173.8523
88.500000	94.020	173.6273
90.000000	93.963	173.3099
91.199997	93.917	173.0528
92.500000	93.864	172.7882
93.800003	93.812	172.5712
95.000000	93.769	172.3766
96.199997	93.727	172.1669
97.500000	93.677	171.9537
98.800003	93.627	171.7563
100.000000	93.582	171.5773
101.500000	93.529	171.3484
103.000000	93.478	171.1425
104.400002	93.433	171.0204
106.000000	93.376	170.8625
107.500000	93.324	170.6783
109.000000	93.271	170.5916
110.599998	93.206	170.4781
112.000000	93.170	170.3152
113.800003	93.131	170.1613
115.000000	93.082	170.1721
117.199997	93.030	170.2437
118.000000	93.017	170.2039
120.599998	92.929	169.8943
122.000000	92.896	169.7234
124.099998	92.853	169.6498
125.000000	92.832	169.6144
126.500000	92.802	169.5387
128.000000	92.773	169.4727
131.500000	92.695	169.2326
132.000000	92.683	169.1941
134.000000	92.632	169.0727
136.000000	92.582	169.0037
138.000000	92.532	168.9330
140.000000	92.484	168.8577
143.000000	92.411	168.7583
145.000000	92.364	168.7202
147.500000	92.303	168.7202
150.000000	92.238	168.7921
152.500000	92.179	168.7761
155.000000	92.132	168.7062
157.500000	92.084	168.6762
160.000000	92.027	168.6976
162.500000	91.964	168.7380
165.000000	91.893	168.7724
167.500000	91.818	168.8024
170.000000	91.743	168.8588
172.500000	91.670	168.9422
175.000000	91.610	169.0323
177.500000	91.556	169.1640
180.000000	91.492	169.3585
182.500000	91.431	169.5500
185.000000	91.381	169.7488
187.500000	91.339	169.9287
190.000000	91.304	170.0626
192.500000	91.268	170.1645
195.000000	91.227	170.2560
197.500000	91.183	170.3432
200.000000	91.141	170.3820
203.000000	91.098	170.3948
206.000000	91.064	170.4611
209.000000	91.029	170.5633
212.000000	90.991	170.6971
214.000000	90.966	170.8018
218.000000	90.917	170.9893
220.000000	90.893	171.0773
224.000000	90.842	171.2894
227.000000	90.805	171.4658
230.000000	90.771	171.6408
233.000000	90.741	171.8238
236.000000	90.713	172.0119
240.000000	90.677	172.2480
243.000000	90.651	172.4068
247.000000	90.620	172.6205
250.000000	90.596	172.7908
254.000000	90.559	173.0181
258.000000	90.519	173.2259
262.000000	90.481	173.4326
265.000000	90.452	173.6009
269.000000	90.416	173.8400
272.000000	90.390	174.0167
276.000000	90.356	174.2462
280.000000	90.323	174.4775
285.000000	90.283	174.7614
290.000000	90.244	175.0470
295.000000	90.205	175.3347
300.000000	90.165	175.6332
304.000000	90.134	175.8700
307.000000	90.111	176.0513
311.000000	90.084	176.2982
315.000000	90.057	176.5445
320.000000	90.024	176.8523
325.000000	89.992	177.1606
330.000000	89.963	177.4767
335.000000	89.933	177.7990
340.000000	89.904	178.1115
345.000000	89.877	178.4283
350.000000	89.850	178.7528
355.000000	89.824	179.0739
360.000000	89.799	179.4017
365.000000	89.776	179.7383
370.000000	89.754	-179.9265
375.000000	89.733	-179.5976
382.000000	89.704	-179.1584
387.000000	89.684	-178.8450
395.000000	89.654	-178.3118
400.000000	89.637	-177.9722
406.000000	89.617	-177.5761
412.000000	89.599	-177.1887
418.000000	89.582	-176.7971
425.000000	89.563	-176.3370
431.000000	89.548	-175.9449
437.000000	89.533	-175.5550
444.000000	89.516	-175.0967
450.000000	89.503	-174.7063
455.000000	89.493	-174.3827
462.000000	89.480	-173.9266
468.000000	89.470	-173.5343
475.000000	89.458	-173.0795
482.000000	89.446	-172.6221
487.000000	89.439	-172.2949
494.000000	89.430	-171.8365
500.000000	89.424	-171.4452
508.000000	89.415	-170.9297
515.000000	89.408	-170.4784
522.000000	89.403	-170.0257
530.000000	89.397	-169.5082
538.000000	89.391	-168.9957
545.000000	89.387	-168.5428
552.000000	89.384	-168.0880
560.000000	89.382	-167.5692
570.000000	89.380	-166.9219
580.000000	89.378	-166.2788
590.000000	89.375	-165.6337
600.000000	89.373	-164.9842
608.000000	89.371	-164.4613
615.000000	89.367	-163.9999
622.000000	89.362	-163.5286
630.000000	89.351	-162.9583
640.000000	89.336	-162.1406
650.000000	89.338	-161.1674
660.000000	89.380	-160.1633
670.000000	89.453	-159.3215
680.000000	89.526	-158.6644
690.000000	89.589	-158.1126
700.000000	89.643	-157.6073
710.000000	89.691	-157.1260
720.000000	89.733	-156.6707
730.000000	89.769	-156.2451
740.000000	89.796	-155.8331
750.000000	89.812	-155.3978
762.000000	89.823	-154.7954
775.000000	89.838	-154.0309
788.000000	89.863	-153.1940
800.000000	89.894	-152.4019
812.000000	89.932	-151.6054
825.000000	89.981	-150.7427
838.000000	90.037	-149.8882
850.000000	90.095	-149.1149
862.000000	90.158	-148.3608
875.000000	90.231	-147.5640
885.000000	90.290	-146.9677
900.000000	90.384	-146.1060
912.000000	90.462	-145.4438
925.000000	90.550	-144.7509
938.000000	90.641	-144.0801
950.000000	90.727	-143.4845
962.000000	90.815	-142.9161
975.000000	90.912	-142.3294
988.000000	91.011	-141.7679
1000.000000	91.105	-141.2731
1015.000000	91.226	-140.6889
1030.000000	91.349	-140.1406
1044.000000	91.464	-139.6603
1060.000000	91.597	-139.1500
1075.000000	91.721	-138.7021
1090.000000	91.845	-138.2824
1106.000000	91.975	-137.8699
1120.000000	92.089	-137.5361
1138.000000	92.233	-137.1378
1150.000000	92.328	-136.8889
1172.000000	92.499	-136.4646
1180.000000	92.560	-136.3180
1206.000000	92.759	-135.8619
1220.000000	92.864	-135.6317
1241.000000	93.017	-135.3086
1250.000000	93.081	-135.1775
1265.000000	93.188	-134.9665
1280.000000	93.293	-134.7627
1315.000000	93.535	-134.3106
1320.000000	93.569	-134.2483
1340.000000	93.704	-134.0043
1360.000000	93.839	-133.7646
1380.000000	93.973	-133.5330
1400.000000	94.105	-133.3194
1430.000000	94.300	-133.0296
1450.000000	94.431	-132.8534
1475.000000	94.594	-132.6501
1500.000000	94.758	-132.4669
1525.000000	94.921	-132.3016
1550.000000	95.084	-132.1551
1575.000000	95.248	-132.0283
1600.000000	95.413	-131.9222
1625.000000	95.576	-131.8388
1650.000000	95.739	-131.7793
1675.000000	95.902	-131.7472
1700.000000	96.067	-131.7448
1725.000000	96.232	-131.7725
1750.000000	96.398	-131.8319
1775.000000	96.564	-131.9224
1800.000000	96.730	-132.0467
1825.000000	96.896	-132.2070
1850.000000	97.061	-132.4018
1875.000000	97.226	-132.6235
1900.000000	97.390	-132.8720
1925.000000	97.553	-133.1558
1950.000000	97.715	-133.4813
1975.000000	97.876	-133.8480
2000.000000	98.036	-134.2509
2030.000000	98.226	-134.7877
2060.000000	98.414	-135.3948
2090.000000	98.598	-136.0776
2120.000000	98.776	-136.8327
2140.000000	98.890	-137.3735
2180.000000	99.108	-138.5411
2200.000000	99.211	-139.1647
2240.000000	99.405	-140.4821
2270.000000	99.540	-141.5239
2300.000000	99.665	-142.6053
2330.000000	99.780	-143.7236
2360.000000	99.884	-144.8759
2400.000000	100.005	-146.4560
2430.000000	100.082	-147.6671
2470.000000	100.168	-149.3073
2500.000000	100.219	-150.5482
2540.000000	100.270	-152.2038
2580.000000	100.300	-153.8457
2620.000000	100.311	-155.4579
2650.000000	100.307	-156.6433
2690.000000	100.286	-158.1878
2720.000000	100.259	-159.3139
2760.000000	100.210	-160.7626
2800.000000	100.147	-162.1442
2850.000000	100.052	-163.7730
2900.000000	99.940	-165.2869
2950.000000	99.814	-166.6803
3000.000000	99.676	-167.9538
3040.000000	99.560	-168.8923
3070.000000	99.470	-169.5509
3110.000000	99.345	-170.3694
3150.000000	99.213	-171.1212
3200.000000	99.037	-171.9725
3250.000000	98.855	-172.7318
3300.000000	98.671	-173.4027
3350.000000	98.485	-173.9898
3400.000000	98.299	-174.5011
3450.000000	98.113	-174.9450
3500.000000	97.928	-175.3255
3550.000000	97.742	-175.6461
3600.000000	97.558	-175.9117
3650.000000	97.373	-176.1260
3700.000000	97.189	-176.2893
3750.000000	97.005	-176.4030
3820.000000	96.747	-176.4847
3870.000000	96.561	-176.4886
3950.000000	96.262	-176.3834
4000.000000	96.074	-176.2407
4060.000000	95.848	-175.9887
4120.000000	95.621	-175.6479
4180.000000	95.389	-175.2108
4250.000000	95.100	-174.5091
4310.000000	94.830	-173.4980
4370.000000	94.595	-171.6912
4440.000000	94.573	-169.1337
4500.000000	94.713	-168.3233
4550.000000	94.746	-168.5710
4620.000000	94.642	-168.9265
4680.000000	94.500	-168.8782
4750.000000	94.326	-168.5473
4820.000000	94.153	-168.0449
4870.000000	94.032	-167.6129
4940.000000	93.866	-166.9324
5000.000000	93.729	-166.2926
5080.000000	93.550	-165.3732
5150.000000	93.397	-164.5194
5220.000000	93.247	-163.6270
5300.000000	93.076	-162.5536
5380.000000	92.904	-161.4074
5450.000000	92.752	-160.3171
5520.000000	92.602	-159.1062
5600.000000	92.440	-157.5344
5700.000000	92.269	-155.2993
5800.000000	92.154	-152.8759
5900.000000	92.097	-150.4170
6000.000000	92.086	-148.0224
6080.000000	92.104	-146.1762
6150.000000	92.134	-144.6099
6220.000000	92.176	-143.0791
6300.000000	92.239	-141.3509
6400.000000	92.342	-139.1829
6500.000000	92.474	-136.9671
6600.000000	92.642	-134.6708
6700.000000	92.858	-132.2878
6800.000000	93.136	-129.8417
6900.000000	93.493	-127.4021
7000.000000	93.941	-125.0575
7100.000000	94.496	-122.9372
7200.000000	95.167	-121.2338
7300.000000	95.952	-120.2029
7400.000000	96.833	-120.1151
7500.000000	97.780	-121.2346
7620.000000	98.936	-124.5301
7750.000000	100.071	-130.8910
7880.000000	100.870	-139.9803
8000.000000	101.160	-149.6205
8120.000000	101.020	-158.8956
8250.000000	100.528	-167.4365
8380.000000	99.841	-174.1234
8500.000000	99.142	-178.7389
8620.000000	98.456	177.9243
8750.000000	97.792	175.3822
8850.000000	97.367	173.8898
9000.000000	96.889	171.8656
9120.000000	96.635	169.9880
9250.000000	96.455	167.2496
9380.000000	96.314	163.4042
9500.000000	96.140	158.6805
9620.000000	95.837	152.9111
9750.000000	95.278	145.9646
9880.000000	94.429	139.1434
10000.000000	93.402	133.7510
10150.000000	91.881	129.0047
10300.000000	90.231	126.7725
10440.000000	88.693	126.8194
10600.000000	87.049	129.0222
10750.000000	85.702	132.8284
10900.000000	84.660	137.7876
11060.000000	83.975	142.7760
11200.000000	83.589	145.9555
11380.000000	83.175	148.6624
11500.000000	82.892	149.8107
11720.000000	82.267	151.3883
11800.000000	82.008	152.0442
12060.000000	81.149	155.1505
12200.000000	80.746	157.4478
12410.000000	80.305	161.4330
12500.000000	80.191	163.2466
12650.000000	80.115	166.3021
12800.000000	80.182	169.2991
13150.000000	80.948	175.3412
13200.000000	81.138	176.0083
13400.000000	82.133	177.8425
13600.000000	83.558	177.6008
13800.000000	85.376	173.5514
14000.000000	87.239	162.9832
14300.000000	88.622	132.5526
14500.000000	87.934	109.8226
14750.000000	85.718	90.0060
15000.000000	83.221	79.5963
15250.000000	81.262	73.4026
15500.000000	79.952	67.9764
15750.000000	79.219	61.0236
16000.000000	78.833	49.8442
16250.000000	78.235	33.1236
16500.000000	76.897	13.3193
16750.000000	74.680	-4.7668
17000.000000	71.863	-18.3040
17250.000000	68.887	-27.7105
17500.000000	66.076	-34.6195
17750.000000	63.570	-40.4218
18000.000000	61.403	-46.1926
18250.000000	59.545	-52.7725
18500.000000	57.935	-60.8051
18750.000000	56.520	-70.5881
19000.000000	55.315	-82.9197
19250.000000	54.216	-99.2797
19500.000000	52.989	-119.5407
19750.000000	51.578	-140.6622
