* Measurement data measured by REW V5.20.13
* Source: Headset (USB-C to 3.5mm Headphone Jack Adapter), MICROPHONE (Master Volume), L, volume: 0.250
* Format: 256k Log Swept Sine, 1 sweep at -12.0 dBFS with no timing reference
* Dated: 10 4, 24 4:49:03 PM
* REW Settings:
*  C-weighting compensation: Off
*  Target level: 75.0 dB
* Note: ; 54 Windows vol, BALANCE tips
* Measurement: TangZu YuXuanJi USBC Bal R
* Smoothing: 1/24 octave
* Frequency Step: 1/48 octave
* Start Frequency: 20.300 Hz
*
* Freq(Hz)	SPL(dB)	Phase(degrees)
20.299999	93.650	-114.5274
20.600000	93.689	-115.0916
20.900000	93.764	-116.0966
21.200001	93.823	-117.0425
21.400000	93.854	-117.6321
21.799999	93.901	-118.7421
22.000000	93.920	-119.2658
22.400000	93.959	-120.2308
22.700001	93.998	-120.9042
23.000000	94.052	-121.5892
23.299999	94.121	-122.3401
23.600000	94.198	-123.1867
24.000000	94.301	-124.4615
24.299999	94.367	-125.4714
24.700001	94.436	-126.7756
25.000000	94.474	-127.6489
25.400000	94.515	-128.6341
25.799999	94.556	-129.4604
26.200001	94.597	-130.2250
26.500000	94.623	-130.8029
26.900000	94.649	-131.5889
27.200001	94.661	-132.1716
27.600000	94.675	-132.9133
28.000000	94.696	-133.6213
28.500000	94.740	-134.5311
29.000000	94.792	-135.5355
29.500000	94.834	-136.5896
30.000000	94.862	-137.5757
30.400000	94.884	-138.2840
30.700001	94.904	-138.7890
31.100000	94.936	-139.4738
31.500000	94.967	-140.1946
32.000000	94.993	-141.1093
32.500000	95.004	-141.9453
33.000000	95.013	-142.6635
33.500000	95.034	-143.3344
34.000000	95.063	-144.0590
34.500000	95.090	-144.8587
35.000000	95.109	-145.6770
35.500000	95.125	-146.4554
36.000000	95.142	-147.1866
36.500000	95.160	-147.8883
37.000000	95.177	-148.5670
37.500000	95.189	-149.2229
38.200001	95.200	-150.1332
38.700001	95.200	-150.7937
39.500000	95.190	-151.8121
40.000000	95.189	-152.4086
40.599998	95.201	-153.1324
41.200001	95.217	-153.8889
41.799999	95.226	-154.6000
42.500000	95.234	-155.2864
43.099998	95.249	-155.8259
43.700001	95.259	-156.4149
44.400002	95.254	-157.1306
45.000000	95.244	-157.7036
45.500000	95.243	-158.1808
46.200001	95.252	-158.9317
46.799999	95.253	-159.6236
47.500000	95.237	-160.3342
48.200001	95.214	-160.9238
48.700001	95.197	-161.3518
49.400002	95.168	-161.9903
50.000000	95.151	-162.4718
50.799999	95.172	-162.9923
51.500000	95.201	-163.4930
52.200001	95.169	-163.9395
53.000000	95.079	-164.1032
53.799999	95.049	-164.3568
54.500000	95.077	-165.2144
55.200001	95.089	-166.3691
56.000000	95.073	-167.2433
57.000000	95.077	-167.6675
58.000000	95.070	-168.1861
59.000000	95.035	-168.8266
60.000000	95.004	-169.4461
60.799999	94.978	-169.9007
61.500000	94.955	-170.2847
62.200001	94.937	-170.7062
63.000000	94.917	-171.2230
64.000000	94.891	-171.8231
65.000000	94.862	-172.3499
66.000000	94.832	-172.8273
67.000000	94.808	-173.2866
68.000000	94.781	-173.7385
69.000000	94.750	-174.1684
70.000000	94.723	-174.5889
71.000000	94.700	-175.0216
72.000000	94.676	-175.4654
73.000000	94.649	-175.8967
74.000000	94.621	-176.3171
75.000000	94.593	-176.7257
76.199997	94.559	-177.1896
77.500000	94.522	-177.6544
78.800003	94.484	-178.0775
80.000000	94.449	-178.4673
81.199997	94.416	-178.8963
82.500000	94.382	-179.3558
83.800003	94.350	-179.7593
85.000000	94.315	179.8846
86.199997	94.281	179.5441
87.500000	94.253	179.1492
88.500000	94.230	178.8101
90.000000	94.185	178.3404
91.199997	94.146	178.0188
92.500000	94.105	177.7082
93.800003	94.065	177.3523
95.000000	94.024	177.0080
96.199997	93.985	176.6996
97.500000	93.944	176.3902
98.800003	93.901	176.1033
100.000000	93.859	175.8495
101.500000	93.807	175.5194
103.000000	93.761	175.2230
104.400002	93.715	174.9644
106.000000	93.666	174.6563
107.500000	93.625	174.4479
109.000000	93.577	174.2951
110.599998	93.548	174.2645
112.000000	93.520	174.3781
113.800003	93.412	174.1447
115.000000	93.316	173.6898
117.199997	93.184	173.1371
118.000000	93.162	173.1260
120.599998	93.170	173.2052
122.000000	93.164	173.0430
124.099998	93.111	172.7495
125.000000	93.092	172.6320
126.500000	93.062	172.4910
128.000000	93.025	172.4182
131.500000	92.941	172.2415
132.000000	92.932	172.2184
134.000000	92.896	172.1228
136.000000	92.855	172.0050
138.000000	92.803	171.9122
140.000000	92.752	171.8163
143.000000	92.687	171.5557
145.000000	92.628	171.3566
147.500000	92.553	171.3397
150.000000	92.476	171.4586
152.500000	92.395	171.6178
155.000000	92.328	171.9173
157.500000	92.282	172.2793
160.000000	92.261	172.6840
162.500000	92.268	172.9326
165.000000	92.280	172.9996
167.500000	92.276	172.9932
170.000000	92.251	172.9366
172.500000	92.192	172.8045
175.000000	92.115	172.5861
177.500000	92.081	172.5423
180.000000	92.081	172.5642
182.500000	92.084	172.3810
185.000000	92.054	172.1190
187.500000	91.985	171.9728
190.000000	91.928	171.9557
192.500000	91.886	171.9046
195.000000	91.844	171.8986
197.500000	91.799	171.9457
200.000000	91.756	171.9658
203.000000	91.707	171.9766
206.000000	91.663	171.9534
209.000000	91.634	171.8790
212.000000	91.614	171.8462
214.000000	91.601	171.8671
218.000000	91.563	171.9041
220.000000	91.539	171.9273
224.000000	91.489	171.9890
227.000000	91.453	172.0306
230.000000	91.420	172.0778
233.000000	91.391	172.1293
236.000000	91.364	172.1897
240.000000	91.331	172.2571
243.000000	91.301	172.3298
247.000000	91.251	172.4258
250.000000	91.218	172.5404
254.000000	91.181	172.7114
258.000000	91.139	172.8389
262.000000	91.094	172.9413
265.000000	91.062	173.0365
269.000000	91.018	173.1788
272.000000	90.986	173.2918
276.000000	90.941	173.4577
280.000000	90.900	173.6142
285.000000	90.862	173.8331
290.000000	90.814	174.0674
295.000000	90.767	174.3129
300.000000	90.724	174.5621
304.000000	90.692	174.7598
307.000000	90.670	174.9112
311.000000	90.643	175.1129
315.000000	90.608	175.2938
320.000000	90.568	175.5358
325.000000	90.534	175.7948
330.000000	90.502	176.0669
335.000000	90.472	176.3452
340.000000	90.443	176.6258
345.000000	90.413	176.9034
350.000000	90.383	177.1691
355.000000	90.354	177.4446
360.000000	90.328	177.7100
365.000000	90.304	177.9867
370.000000	90.278	178.2880
375.000000	90.252	178.5798
382.000000	90.221	178.9665
387.000000	90.200	179.2483
395.000000	90.167	179.7040
400.000000	90.150	179.9969
406.000000	90.128	-179.6450
412.000000	90.105	-179.2961
418.000000	90.084	-178.9527
425.000000	90.061	-178.5492
431.000000	90.041	-178.2002
437.000000	90.022	-177.8539
444.000000	90.004	-177.4450
450.000000	89.990	-177.0844
455.000000	89.979	-176.7834
462.000000	89.963	-176.3623
468.000000	89.950	-175.9953
475.000000	89.937	-175.5647
482.000000	89.924	-175.1478
487.000000	89.915	-174.8557
494.000000	89.904	-174.4391
500.000000	89.894	-174.0748
508.000000	89.884	-173.5871
515.000000	89.876	-173.1554
522.000000	89.869	-172.7252
530.000000	89.863	-172.2362
538.000000	89.858	-171.7406
545.000000	89.853	-171.3055
552.000000	89.850	-170.8759
560.000000	89.849	-170.3862
570.000000	89.848	-169.7724
580.000000	89.850	-169.1519
590.000000	89.853	-168.5263
600.000000	89.859	-167.9048
608.000000	89.866	-167.4100
615.000000	89.873	-166.9743
622.000000	89.881	-166.5313
630.000000	89.892	-166.0223
640.000000	89.908	-165.3984
650.000000	89.929	-164.7913
660.000000	89.956	-164.2108
670.000000	89.990	-163.6841
680.000000	90.027	-163.2864
690.000000	90.045	-163.0851
700.000000	90.008	-162.8872
710.000000	89.936	-162.2775
720.000000	89.900	-161.3038
730.000000	89.913	-160.3277
740.000000	89.948	-159.4771
750.000000	89.989	-158.7170
762.000000	90.039	-157.8709
775.000000	90.094	-157.0001
788.000000	90.152	-156.1538
800.000000	90.206	-155.3838
812.000000	90.263	-154.6219
825.000000	90.328	-153.8100
838.000000	90.397	-153.0250
850.000000	90.466	-152.3253
862.000000	90.541	-151.6483
875.000000	90.628	-150.9554
885.000000	90.698	-150.4706
900.000000	90.803	-149.8621
912.000000	90.877	-149.4820
925.000000	90.934	-149.0985
938.000000	90.972	-148.6054
950.000000	91.007	-147.9960
962.000000	91.057	-147.2996
975.000000	91.131	-146.5405
988.000000	91.219	-145.8286
1000.000000	91.307	-145.2269
1015.000000	91.425	-144.5398
1030.000000	91.546	-143.9130
1044.000000	91.660	-143.3746
1060.000000	91.790	-142.8093
1075.000000	91.912	-142.3210
1090.000000	92.033	-141.8632
1106.000000	92.161	-141.4061
1120.000000	92.272	-141.0330
1138.000000	92.413	-140.5910
1150.000000	92.506	-140.3179
1172.000000	92.673	-139.8536
1180.000000	92.733	-139.6939
1206.000000	92.924	-139.2075
1220.000000	93.025	-138.9664
1241.000000	93.175	-138.6267
1250.000000	93.238	-138.4862
1265.000000	93.342	-138.2574
1280.000000	93.444	-138.0384
1315.000000	93.679	-137.5639
1320.000000	93.712	-137.4990
1340.000000	93.844	-137.2428
1360.000000	93.975	-136.9976
1380.000000	94.106	-136.7681
1400.000000	94.236	-136.5528
1430.000000	94.428	-136.2493
1450.000000	94.555	-136.0547
1475.000000	94.714	-135.8226
1500.000000	94.874	-135.6062
1525.000000	95.034	-135.4059
1550.000000	95.194	-135.2214
1575.000000	95.354	-135.0525
1600.000000	95.516	-134.9052
1625.000000	95.677	-134.7821
1650.000000	95.839	-134.6820
1675.000000	96.002	-134.6052
1700.000000	96.166	-134.5566
1725.000000	96.331	-134.5397
1750.000000	96.497	-134.5543
1775.000000	96.664	-134.6011
1800.000000	96.832	-134.6828
1825.000000	97.001	-134.8001
1850.000000	97.170	-134.9550
1875.000000	97.338	-135.1489
1900.000000	97.507	-135.3841
1925.000000	97.676	-135.6636
1950.000000	97.843	-135.9875
1975.000000	98.010	-136.3556
2000.000000	98.175	-136.7686
2030.000000	98.371	-137.3253
2060.000000	98.563	-137.9510
2090.000000	98.750	-138.6468
2120.000000	98.932	-139.4147
2140.000000	99.049	-139.9670
2180.000000	99.276	-141.1631
2200.000000	99.384	-141.8057
2240.000000	99.588	-143.1766
2270.000000	99.729	-144.2779
2300.000000	99.858	-145.4358
2330.000000	99.975	-146.6428
2360.000000	100.080	-147.8931
2400.000000	100.198	-149.6104
2430.000000	100.270	-150.9247
2470.000000	100.344	-152.6958
2500.000000	100.384	-154.0269
2540.000000	100.417	-155.7896
2580.000000	100.428	-157.5302
2620.000000	100.416	-159.2339
2650.000000	100.392	-160.4746
2690.000000	100.342	-162.0621
2720.000000	100.294	-163.1925
2760.000000	100.219	-164.6213
2800.000000	100.131	-165.9698
2850.000000	100.008	-167.5585
2900.000000	99.868	-169.0393
2950.000000	99.712	-170.4103
3000.000000	99.538	-171.6532
3040.000000	99.389	-172.5452
3070.000000	99.272	-173.1479
3110.000000	99.109	-173.8596
3150.000000	98.939	-174.4626
3200.000000	98.715	-175.0611
3250.000000	98.486	-175.4973
3300.000000	98.262	-175.7863
3350.000000	98.045	-175.9381
3400.000000	97.838	-175.9635
3450.000000	97.643	-175.8865
3500.000000	97.465	-175.7455
3550.000000	97.300	-175.5873
3600.000000	97.145	-175.4395
3650.000000	96.993	-175.3013
3700.000000	96.839	-175.1477
3750.000000	96.683	-174.9531
3820.000000	96.466	-174.5807
3870.000000	96.314	-174.2357
3950.000000	96.082	-173.5572
4000.000000	95.947	-173.0719
4060.000000	95.797	-172.4397
4120.000000	95.659	-171.7648
4180.000000	95.532	-171.0563
4250.000000	95.399	-170.2038
4310.000000	95.297	-169.4701
4370.000000	95.205	-168.7536
4440.000000	95.103	-167.9311
4500.000000	95.021	-167.1887
4550.000000	94.965	-166.5464
4620.000000	94.903	-165.6885
4680.000000	94.859	-165.0101
4750.000000	94.816	-164.2697
4820.000000	94.780	-163.5867
4870.000000	94.758	-163.1408
4940.000000	94.733	-162.5875
5000.000000	94.713	-162.1919
5080.000000	94.683	-161.7925
5150.000000	94.650	-161.5676
5220.000000	94.601	-161.4475
5300.000000	94.520	-161.3973
5380.000000	94.405	-161.3681
5450.000000	94.277	-161.2968
5520.000000	94.123	-161.1343
5600.000000	93.919	-160.7788
5700.000000	93.628	-159.9589
5800.000000	93.319	-158.5884
5900.000000	93.027	-156.6215
6000.000000	92.785	-154.1250
6080.000000	92.644	-151.8446
6150.000000	92.563	-149.7116
6220.000000	92.525	-147.4995
6300.000000	92.534	-144.9269
6400.000000	92.626	-141.7143
6500.000000	92.801	-138.5648
6600.000000	93.054	-135.5404
6700.000000	93.385	-132.7039
6800.000000	93.790	-130.1196
6900.000000	94.270	-127.8502
7000.000000	94.824	-125.9545
7100.000000	95.453	-124.4992
7200.000000	96.159	-123.6003
7300.000000	96.935	-123.4244
7400.000000	97.771	-124.1573
7500.000000	98.641	-126.0000
7620.000000	99.671	-129.9762
7750.000000	100.647	-136.7262
7880.000000	101.304	-145.7749
8000.000000	101.502	-155.2242
8120.000000	101.284	-164.4142
8250.000000	100.685	-172.8439
8380.000000	99.880	-179.1525
8500.000000	99.093	176.7598
8620.000000	98.348	173.9353
8750.000000	97.640	171.8022
8850.000000	97.178	170.5149
9000.000000	96.614	168.7154
9120.000000	96.259	167.0772
9250.000000	95.938	164.8240
9380.000000	95.637	161.8788
9500.000000	95.329	158.4742
9620.000000	94.941	154.4837
9750.000000	94.382	149.7661
9880.000000	93.650	145.0792
10000.000000	92.822	141.2122
10150.000000	91.623	137.5126
10300.000000	90.308	135.4214
10440.000000	89.050	134.9884
10600.000000	87.661	136.1575
10750.000000	86.481	138.6023
10900.000000	85.478	141.9717
11060.000000	84.648	146.0356
11200.000000	84.131	149.4263
11380.000000	83.669	152.7973
11500.000000	83.405	154.3365
11720.000000	82.874	156.3282
11800.000000	82.660	156.9843
12060.000000	81.922	159.4353
12200.000000	81.518	161.1613
12410.000000	80.984	164.7263
12500.000000	80.827	166.5929
12650.000000	80.713	169.8596
12800.000000	80.778	172.9974
13150.000000	81.548	178.8528
13200.000000	81.732	179.4595
13400.000000	82.688	-178.9750
13600.000000	84.040	-179.4917
13800.000000	85.755	176.2492
14000.000000	87.511	165.6279
14300.000000	88.783	135.3017
14500.000000	88.027	112.3644
14750.000000	85.626	92.2039
15000.000000	82.774	82.1923
15250.000000	80.365	77.4058
15500.000000	78.601	74.0691
15750.000000	77.339	70.1779
16000.000000	76.379	64.7256
16250.000000	75.531	57.1634
16500.000000	74.633	47.4203
16750.000000	73.556	35.9329
17000.000000	72.201	23.6295
17250.000000	70.565	11.7297
17500.000000	68.746	0.9307
17750.000000	66.893	-8.8502
18000.000000	65.134	-18.1404
18250.000000	63.555	-27.6852
18500.000000	62.185	-38.4194
18750.000000	60.983	-51.3806
19000.000000	59.844	-67.3600
19250.000000	58.628	-86.6418
19500.000000	57.220	-108.8921
19750.000000	55.600	-131.2807
