* Measurement data measured by REW V5.20.13
* Source: Headset (USB-C to 3.5mm Headphone Jack Adapter), MICROPHONE (Master Volume), R, volume: 0.250
* Format: 256k Log Swept Sine, 1 sweep at -12.0 dBFS with no timing reference
* Dated: 09 29, 24 9:05:39 PM
* REW Settings:
*  C-weighting compensation: Off
*  Target level: 75.0 dB
* Note: ; CP100
* Measurement: Logitech UE900 R
* Smoothing: 1/24 octave
* Frequency Step: 1/48 octave
* Start Frequency: 20.300 Hz
*
* Freq(Hz)	SPL(dB)	Phase(degrees)
20.299999	92.705	65.1858
20.600000	92.744	64.7693
20.900000	92.820	64.0276
21.200001	92.888	63.3268
21.400000	92.931	62.8786
21.799999	93.012	61.9862
22.000000	93.053	61.5335
22.400000	93.134	60.6346
22.700001	93.193	59.9808
23.000000	93.251	59.3506
23.299999	93.309	58.7452
23.600000	93.365	58.1605
24.000000	93.436	57.4027
24.299999	93.484	56.8431
24.700001	93.542	56.1064
25.000000	93.580	55.5647
25.400000	93.625	54.8646
25.799999	93.669	54.1907
26.200001	93.715	53.5291
26.500000	93.751	53.0280
26.900000	93.803	52.3431
27.200001	93.841	51.8203
27.600000	93.889	51.1291
28.000000	93.935	50.4713
28.500000	93.991	49.7112
29.000000	94.050	48.9865
29.500000	94.109	48.2478
30.000000	94.159	47.4897
30.400000	94.191	46.8982
30.700001	94.213	46.4771
31.100000	94.244	45.9450
31.500000	94.278	45.4291
32.000000	94.323	44.7784
32.500000	94.365	44.1232
33.000000	94.402	43.5007
33.500000	94.438	42.9307
34.000000	94.479	42.3859
34.500000	94.520	41.8238
35.000000	94.558	41.2370
35.500000	94.587	40.6566
36.000000	94.610	40.1116
36.500000	94.632	39.5996
37.000000	94.655	39.0993
37.500000	94.679	38.5984
38.200001	94.713	37.9058
38.700001	94.739	37.4246
39.500000	94.781	36.6770
40.000000	94.803	36.2316
40.599998	94.825	35.7276
41.200001	94.848	35.2282
41.799999	94.872	34.6787
42.500000	94.896	33.9651
43.099998	94.911	33.3782
43.700001	94.926	32.8987
44.400002	94.951	32.4628
45.000000	94.973	32.1295
45.500000	94.987	31.8591
46.200001	95.004	31.4829
46.799999	95.026	31.1104
47.500000	95.051	30.5547
48.200001	95.057	29.9696
48.700001	95.052	29.6325
49.400002	95.050	29.2766
50.000000	95.061	28.9595
50.799999	95.081	28.4246
51.500000	95.099	27.9478
52.200001	95.119	27.5442
53.000000	95.142	27.1707
53.799999	95.157	26.8864
54.500000	95.172	26.6595
55.200001	95.190	26.3580
56.000000	95.209	25.8861
57.000000	95.222	25.2122
58.000000	95.232	24.5990
59.000000	95.243	24.1157
60.000000	95.236	23.7550
60.799999	95.220	23.5276
61.500000	95.214	23.3137
62.200001	95.221	23.0637
63.000000	95.242	22.7813
64.000000	95.275	22.4645
65.000000	95.294	22.1065
66.000000	95.300	21.6573
67.000000	95.302	21.1765
68.000000	95.308	20.7753
69.000000	95.318	20.4434
70.000000	95.322	20.1698
71.000000	95.326	19.9123
72.000000	95.330	19.5350
73.000000	95.323	19.1480
74.000000	95.318	18.8707
75.000000	95.318	18.6080
76.199997	95.329	18.3539
77.500000	95.372	18.2721
78.800003	95.404	18.1186
80.000000	95.374	17.6764
81.199997	95.324	17.2901
82.500000	95.305	17.0326
83.800003	95.308	16.8800
85.000000	95.336	16.8281
86.199997	95.396	16.6888
87.500000	95.414	16.3081
88.500000	95.351	16.0915
90.000000	95.227	15.8279
91.199997	95.226	15.4786
92.500000	95.299	14.9931
93.800003	95.322	14.6641
95.000000	95.303	14.5125
96.199997	95.291	14.3942
97.500000	95.285	14.2649
98.800003	95.285	14.1284
100.000000	95.296	13.9902
101.500000	95.319	13.7810
103.000000	95.335	13.5493
104.400002	95.342	13.3691
106.000000	95.339	13.1925
107.500000	95.331	13.0191
109.000000	95.321	12.8417
110.599998	95.308	12.6781
112.000000	95.303	12.5414
113.800003	95.303	12.3584
115.000000	95.302	12.2464
117.199997	95.295	12.0652
118.000000	95.292	12.0004
120.599998	95.284	11.7899
122.000000	95.279	11.6807
124.099998	95.270	11.5198
125.000000	95.268	11.4455
126.500000	95.267	11.3261
128.000000	95.269	11.2287
131.500000	95.270	11.0343
132.000000	95.270	11.0106
134.000000	95.270	10.9259
136.000000	95.270	10.8279
138.000000	95.271	10.7439
140.000000	95.271	10.6704
143.000000	95.272	10.5808
145.000000	95.275	10.5315
147.500000	95.280	10.4726
150.000000	95.284	10.4414
152.500000	95.292	10.4954
155.000000	95.306	10.4915
157.500000	95.323	10.3371
160.000000	95.319	10.2356
162.500000	95.311	10.1732
165.000000	95.304	10.1075
167.500000	95.298	10.0166
170.000000	95.289	9.9196
172.500000	95.277	9.8258
175.000000	95.263	9.7511
177.500000	95.251	9.6915
180.000000	95.236	9.6411
182.500000	95.220	9.5915
185.000000	95.205	9.5430
187.500000	95.190	9.5112
190.000000	95.178	9.4944
192.500000	95.165	9.4784
195.000000	95.153	9.4650
197.500000	95.142	9.4561
200.000000	95.136	9.4502
203.000000	95.134	9.4474
206.000000	95.137	9.4497
209.000000	95.143	9.4566
212.000000	95.149	9.4673
214.000000	95.153	9.4764
218.000000	95.161	9.4906
220.000000	95.166	9.4953
224.000000	95.175	9.5179
227.000000	95.181	9.5522
230.000000	95.187	9.5872
233.000000	95.195	9.6191
236.000000	95.202	9.6542
240.000000	95.212	9.7026
243.000000	95.220	9.7375
247.000000	95.230	9.7884
250.000000	95.236	9.8293
254.000000	95.242	9.8867
258.000000	95.248	9.9453
262.000000	95.254	10.0087
265.000000	95.259	10.0588
269.000000	95.266	10.1234
272.000000	95.271	10.1710
276.000000	95.279	10.2382
280.000000	95.287	10.3082
285.000000	95.297	10.3960
290.000000	95.308	10.4867
295.000000	95.320	10.5782
300.000000	95.333	10.6721
304.000000	95.344	10.7485
307.000000	95.352	10.8037
311.000000	95.364	10.8756
315.000000	95.377	10.9481
320.000000	95.394	11.0382
325.000000	95.413	11.1267
330.000000	95.432	11.2117
335.000000	95.452	11.2935
340.000000	95.472	11.3768
345.000000	95.493	11.4579
350.000000	95.516	11.5329
355.000000	95.538	11.6028
360.000000	95.561	11.6721
365.000000	95.584	11.7377
370.000000	95.609	11.8001
375.000000	95.634	11.8599
382.000000	95.669	11.9385
387.000000	95.696	11.9900
395.000000	95.741	12.0634
400.000000	95.770	12.0994
406.000000	95.808	12.1286
412.000000	95.846	12.1410
418.000000	95.885	12.1345
425.000000	95.931	12.1019
431.000000	95.970	12.0516
437.000000	96.008	11.9824
444.000000	96.052	11.8817
450.000000	96.088	11.7820
455.000000	96.118	11.6893
462.000000	96.159	11.5410
468.000000	96.194	11.3970
475.000000	96.233	11.2074
482.000000	96.271	10.9948
487.000000	96.298	10.8297
494.000000	96.332	10.5779
500.000000	96.360	10.3423
508.000000	96.395	9.9995
515.000000	96.423	9.6730
522.000000	96.447	9.3234
530.000000	96.471	8.8967
538.000000	96.489	8.4419
545.000000	96.501	8.0211
552.000000	96.508	7.5807
560.000000	96.510	7.0569
570.000000	96.501	6.3734
580.000000	96.481	5.6635
590.000000	96.449	4.9371
600.000000	96.403	4.2014
608.000000	96.356	3.6137
615.000000	96.309	3.1023
622.000000	96.254	2.5969
630.000000	96.183	2.0327
640.000000	96.080	1.3575
650.000000	95.964	0.7275
660.000000	95.836	0.1459
670.000000	95.696	-0.3784
680.000000	95.547	-0.8338
690.000000	95.388	-1.2161
700.000000	95.221	-1.5202
710.000000	95.047	-1.7429
720.000000	94.868	-1.8840
730.000000	94.685	-1.9382
740.000000	94.500	-1.9065
750.000000	94.314	-1.7921
762.000000	94.091	-1.5458
775.000000	93.851	-1.1470
788.000000	93.615	-0.6209
800.000000	93.403	-0.0302
812.000000	93.197	0.6514
825.000000	92.981	1.4818
838.000000	92.776	2.3989
850.000000	92.596	3.3145
862.000000	92.425	4.2859
875.000000	92.251	5.3949
885.000000	92.125	6.2856
900.000000	91.948	7.6682
912.000000	91.817	8.8018
925.000000	91.688	10.0533
938.000000	91.570	11.3256
950.000000	91.470	12.5115
962.000000	91.379	13.7002
975.000000	91.291	14.9871
988.000000	91.212	16.2710
1000.000000	91.147	17.4481
1015.000000	91.079	18.9047
1030.000000	91.022	20.3402
1044.000000	90.976	21.6579
1060.000000	90.933	23.1387
1075.000000	90.899	24.4994
1090.000000	90.871	25.8261
1106.000000	90.846	27.2082
1120.000000	90.829	28.3930
1138.000000	90.811	29.8815
1150.000000	90.802	30.8541
1172.000000	90.788	32.5989
1180.000000	90.784	33.2212
1206.000000	90.776	35.2097
1220.000000	90.772	36.2619
1241.000000	90.770	37.8202
1250.000000	90.770	38.4809
1265.000000	90.770	39.5713
1280.000000	90.772	40.6509
1315.000000	90.780	43.1396
1320.000000	90.781	43.4924
1340.000000	90.789	44.8969
1360.000000	90.798	46.2932
1380.000000	90.811	47.6811
1400.000000	90.826	49.0537
1430.000000	90.854	51.0927
1450.000000	90.875	52.4440
1475.000000	90.905	54.1246
1500.000000	90.940	55.7911
1525.000000	90.979	57.4413
1550.000000	91.023	59.0753
1575.000000	91.070	60.6977
1600.000000	91.120	62.3072
1625.000000	91.173	63.9085
1650.000000	91.229	65.5066
1675.000000	91.293	67.1033
1700.000000	91.364	68.6928
1725.000000	91.444	70.2604
1750.000000	91.532	71.7903
1775.000000	91.626	73.2756
1800.000000	91.725	74.7183
1825.000000	91.829	76.1228
1850.000000	91.937	77.4902
1875.000000	92.049	78.8215
1900.000000	92.166	80.1169
1925.000000	92.288	81.3704
1950.000000	92.414	82.5810
1975.000000	92.543	83.7507
2000.000000	92.677	84.8784
2030.000000	92.844	86.1730
2060.000000	93.015	87.4000
2090.000000	93.191	88.5528
2120.000000	93.370	89.6294
2140.000000	93.491	90.3089
2180.000000	93.736	91.5987
2200.000000	93.862	92.2198
2240.000000	94.125	93.4377
2270.000000	94.344	94.3211
2300.000000	94.593	95.1059
2330.000000	94.874	95.6607
2360.000000	95.170	95.8568
2400.000000	95.547	95.5014
2430.000000	95.794	94.8732
2470.000000	96.065	93.7532
2500.000000	96.229	92.7854
2540.000000	96.405	91.3789
2580.000000	96.532	89.8678
2620.000000	96.610	88.2847
2650.000000	96.635	87.0803
2690.000000	96.625	85.5025
2720.000000	96.588	84.3755
2760.000000	96.504	82.9921
2800.000000	96.390	81.7761
2850.000000	96.220	80.5069
2900.000000	96.034	79.4890
2950.000000	95.844	78.6648
3000.000000	95.656	77.9764
3040.000000	95.507	77.4923
3070.000000	95.397	77.1600
3110.000000	95.250	76.7528
3150.000000	95.105	76.3828
3200.000000	94.923	75.9636
3250.000000	94.748	75.5758
3300.000000	94.588	75.2022
3350.000000	94.447	74.8179
3400.000000	94.328	74.3850
3450.000000	94.234	73.8628
3500.000000	94.164	73.2193
3550.000000	94.120	72.4205
3600.000000	94.102	71.4336
3650.000000	94.109	70.2254
3700.000000	94.141	68.7631
3750.000000	94.198	67.0116
3820.000000	94.311	63.9993
3870.000000	94.409	61.4011
3950.000000	94.572	56.4163
4000.000000	94.659	52.7947
4060.000000	94.727	48.0266
4120.000000	94.734	43.0021
4180.000000	94.679	38.0128
4250.000000	94.571	32.5609
4310.000000	94.480	28.2850
4370.000000	94.414	24.3024
4440.000000	94.373	19.9191
4500.000000	94.364	16.3511
4550.000000	94.372	13.5151
4620.000000	94.399	9.7841
4680.000000	94.438	6.8393
4750.000000	94.505	3.7204
4820.000000	94.601	0.9290
4870.000000	94.688	-0.8885
4940.000000	94.835	-3.2358
5000.000000	94.979	-5.1086
5080.000000	95.184	-7.4574
5150.000000	95.364	-9.3979
5220.000000	95.537	-11.2262
5300.000000	95.718	-13.1453
5380.000000	95.879	-14.8492
5450.000000	96.004	-16.1511
5520.000000	96.115	-17.2826
5600.000000	96.223	-18.3826
5700.000000	96.325	-19.4630
5800.000000	96.388	-20.1734
5900.000000	96.409	-20.4333
6000.000000	96.398	-20.1286
6080.000000	96.383	-19.4117
6150.000000	96.380	-18.4418
6220.000000	96.398	-17.1979
6300.000000	96.457	-15.5244
6400.000000	96.591	-13.1899
6500.000000	96.781	-10.6997
6600.000000	97.021	-8.1110
6700.000000	97.311	-5.4522
6800.000000	97.657	-2.7792
6900.000000	98.062	-0.1970
7000.000000	98.526	2.1907
7100.000000	99.043	4.3103
7200.000000	99.613	6.0728
7300.000000	100.232	7.3632
7400.000000	100.894	8.0421
7500.000000	101.585	7.9272
7620.000000	102.406	6.4633
7750.000000	103.186	3.0136
7880.000000	103.717	-2.2296
8000.000000	103.880	-8.0260
8120.000000	103.689	-13.7920
8250.000000	103.147	-18.9891
8380.000000	102.373	-22.5163
8500.000000	101.555	-24.2004
8620.000000	100.716	-24.5455
8750.000000	99.838	-23.7153
8850.000000	99.204	-22.4197
9000.000000	98.338	-19.6866
9120.000000	97.722	-17.0184
9250.000000	97.126	-13.8038
9380.000000	96.600	-10.3462
9500.000000	96.173	-6.9947
9620.000000	95.801	-3.5373
9750.000000	95.459	0.2830
9880.000000	95.180	4.1456
10000.000000	94.985	7.7292
10150.000000	94.837	12.2000
10300.000000	94.802	16.5893
10440.000000	94.884	20.4991
10600.000000	95.132	24.5373
10750.000000	95.530	27.6083
10900.000000	96.093	29.5567
11060.000000	96.846	29.7369
11200.000000	97.555	27.6159
11380.000000	98.299	20.9682
11500.000000	98.518	14.1949
11720.000000	98.024	-0.2641
11800.000000	97.545	-5.0578
12060.000000	95.250	-15.3405
12200.000000	93.825	-17.4819
12410.000000	91.770	-17.5520
12500.000000	90.961	-16.7846
12650.000000	89.733	-14.8027
12800.000000	88.650	-12.2143
13150.000000	86.623	-5.0313
13200.000000	86.385	-3.9630
13400.000000	85.556	0.2038
13600.000000	84.905	3.9382
13800.000000	84.399	6.9015
14000.000000	83.974	8.9702
14300.000000	83.446	10.6655
14500.000000	83.176	10.4396
14750.000000	82.814	8.3026
15000.000000	82.325	4.4542
15250.000000	81.634	-0.4458
15500.000000	80.754	-5.3993
15750.000000	79.798	-9.8901
16000.000000	78.878	-13.9960
16250.000000	78.084	-18.0485
16500.000000	77.507	-22.5249
16750.000000	77.221	-28.0802
17000.000000	77.245	-35.4550
17250.000000	77.551	-45.4790
17500.000000	78.024	-59.0082
17750.000000	78.460	-76.4191
18000.000000	78.714	-96.7448
18250.000000	78.984	-119.0145
18500.000000	79.408	-145.8410
18750.000000	79.433	-179.2710
19000.000000	78.700	143.7250
19250.000000	77.337	105.5347
19500.000000	75.484	67.0482
19750.000000	73.311	32.1371
