* Measurement data measured by REW V5.20.13
* Source: Headset (USB-C to 3.5mm Headphone Jack Adapter), MICROPHONE (Master Volume), R, volume: 0.250
* Format: 256k Log Swept Sine, 1 sweep at -12.0 dBFS with no timing reference
* Dated: 09 29, 24 9:02:36 PM
* REW Settings:
*  C-weighting compensation: Off
*  Target level: 75.0 dB
* Note: ; CP100
* Measurement: Logitech UE900 L
* Smoothing: 1/24 octave
* Frequency Step: 1/48 octave
* Start Frequency: 20.300 Hz
*
* Freq(Hz)	SPL(dB)	Phase(degrees)
20.299999	93.767	65.9375
20.600000	93.805	65.5173
20.900000	93.881	64.7708
21.200001	93.951	64.0698
21.400000	93.995	63.6231
21.799999	94.078	62.7355
22.000000	94.119	62.2858
22.400000	94.196	61.3963
22.700001	94.251	60.7542
23.000000	94.302	60.1390
23.299999	94.353	59.5483
23.600000	94.404	58.9734
24.000000	94.470	58.2144
24.299999	94.519	57.6403
24.700001	94.581	56.8660
25.000000	94.625	56.2855
25.400000	94.681	55.5246
25.799999	94.736	54.7890
26.200001	94.791	54.0798
26.500000	94.832	53.5615
26.900000	94.887	52.8839
27.200001	94.926	52.3845
27.600000	94.977	51.7314
28.000000	95.024	51.0951
28.500000	95.080	50.3251
29.000000	95.132	49.5809
29.500000	95.181	48.8556
30.000000	95.229	48.1375
30.400000	95.267	47.5626
30.700001	95.294	47.1326
31.100000	95.329	46.5698
31.500000	95.364	46.0306
32.000000	95.410	45.3984
32.500000	95.461	44.7966
33.000000	95.512	44.1910
33.500000	95.557	43.5660
34.000000	95.590	42.9400
34.500000	95.614	42.3429
35.000000	95.637	41.7816
35.500000	95.663	41.2378
36.000000	95.693	40.6939
36.500000	95.725	40.1522
37.000000	95.755	39.6265
37.500000	95.783	39.1233
38.200001	95.819	38.4474
38.700001	95.843	37.9770
39.500000	95.880	37.2358
40.000000	95.904	36.7736
40.599998	95.931	36.2231
41.200001	95.956	35.6917
41.799999	95.981	35.1823
42.500000	96.011	34.6015
43.099998	96.035	34.1202
43.700001	96.058	33.6746
44.400002	96.087	33.1846
45.000000	96.111	32.7480
45.500000	96.127	32.3642
46.200001	96.142	31.8300
46.799999	96.154	31.3963
47.500000	96.172	30.9007
48.200001	96.192	30.4075
48.700001	96.205	30.0722
49.400002	96.222	29.6422
50.000000	96.237	29.3008
50.799999	96.255	28.8608
51.500000	96.271	28.4730
52.200001	96.285	28.0644
53.000000	96.299	27.5700
53.799999	96.310	27.0856
54.500000	96.322	26.7004
55.200001	96.338	26.3443
56.000000	96.356	25.9400
57.000000	96.366	25.4268
58.000000	96.373	24.9264
59.000000	96.389	24.4261
60.000000	96.406	23.9730
60.799999	96.417	23.6602
61.500000	96.427	23.3946
62.200001	96.434	23.1264
63.000000	96.437	22.8271
64.000000	96.434	22.4710
65.000000	96.438	22.0712
66.000000	96.456	21.5650
67.000000	96.475	21.0731
68.000000	96.487	20.7083
69.000000	96.491	20.4388
70.000000	96.498	20.1656
71.000000	96.504	19.8092
72.000000	96.502	19.4602
73.000000	96.502	19.1605
74.000000	96.503	18.8449
75.000000	96.502	18.5265
76.199997	96.514	18.2106
77.500000	96.558	17.9540
78.800003	96.591	17.6704
80.000000	96.574	17.5224
81.199997	96.538	17.3040
82.500000	96.520	16.9177
83.800003	96.531	16.5426
85.000000	96.500	16.0170
86.199997	96.430	15.3877
87.500000	96.455	15.1961
88.500000	96.529	15.3666
90.000000	96.570	15.5841
91.199997	96.558	15.2166
92.500000	96.551	14.6012
93.800003	96.556	14.2357
95.000000	96.563	14.0227
96.199997	96.570	13.8208
97.500000	96.576	13.6357
98.800003	96.571	13.4486
100.000000	96.564	13.2774
101.500000	96.565	13.0362
103.000000	96.564	12.7291
104.400002	96.561	12.4650
106.000000	96.557	12.2284
107.500000	96.554	12.0193
109.000000	96.551	11.8026
110.599998	96.548	11.5840
112.000000	96.547	11.4195
113.800003	96.544	11.2323
115.000000	96.540	11.0938
117.199997	96.532	10.8152
118.000000	96.529	10.7242
120.599998	96.515	10.4799
122.000000	96.509	10.3318
124.099998	96.512	10.1097
125.000000	96.514	10.0303
126.500000	96.516	9.8974
128.000000	96.517	9.7619
131.500000	96.522	9.5155
132.000000	96.523	9.4779
134.000000	96.523	9.3095
136.000000	96.520	9.1389
138.000000	96.517	8.9789
140.000000	96.517	8.8515
143.000000	96.517	8.6724
145.000000	96.518	8.5456
147.500000	96.516	8.3790
150.000000	96.517	8.2319
152.500000	96.514	8.0563
155.000000	96.510	7.8872
157.500000	96.510	7.8002
160.000000	96.510	7.7563
162.500000	96.501	7.6883
165.000000	96.486	7.5991
167.500000	96.468	7.5276
170.000000	96.450	7.4515
172.500000	96.432	7.3457
175.000000	96.415	7.2559
177.500000	96.399	7.1857
180.000000	96.383	7.1229
182.500000	96.367	7.0996
185.000000	96.354	7.0771
187.500000	96.340	7.0355
190.000000	96.329	6.9917
192.500000	96.319	6.9516
195.000000	96.308	6.9144
197.500000	96.296	6.8814
200.000000	96.288	6.8520
203.000000	96.287	6.8148
206.000000	96.293	6.7801
209.000000	96.300	6.7496
212.000000	96.305	6.7178
214.000000	96.309	6.6971
218.000000	96.318	6.6608
220.000000	96.322	6.6443
224.000000	96.331	6.6142
227.000000	96.337	6.5904
230.000000	96.342	6.5691
233.000000	96.348	6.5513
236.000000	96.353	6.5399
240.000000	96.361	6.5375
243.000000	96.368	6.5408
247.000000	96.375	6.5465
250.000000	96.379	6.5499
254.000000	96.383	6.5618
258.000000	96.387	6.5808
262.000000	96.391	6.5969
265.000000	96.395	6.6076
269.000000	96.401	6.6246
272.000000	96.405	6.6417
276.000000	96.412	6.6686
280.000000	96.418	6.6959
285.000000	96.428	6.7313
290.000000	96.439	6.7672
295.000000	96.449	6.8004
300.000000	96.461	6.8338
304.000000	96.472	6.8610
307.000000	96.480	6.8803
311.000000	96.492	6.9061
315.000000	96.504	6.9308
320.000000	96.522	6.9573
325.000000	96.541	6.9820
330.000000	96.560	7.0050
335.000000	96.581	7.0249
340.000000	96.603	7.0386
345.000000	96.625	7.0509
350.000000	96.648	7.0619
355.000000	96.671	7.0634
360.000000	96.696	7.0562
365.000000	96.721	7.0431
370.000000	96.747	7.0238
375.000000	96.773	6.9985
382.000000	96.811	6.9486
387.000000	96.839	6.9021
395.000000	96.884	6.8082
400.000000	96.913	6.7388
406.000000	96.948	6.6426
412.000000	96.984	6.5281
418.000000	97.020	6.3965
425.000000	97.062	6.2245
431.000000	97.098	6.0609
437.000000	97.134	5.8784
444.000000	97.175	5.6397
450.000000	97.209	5.4137
455.000000	97.237	5.2099
462.000000	97.275	4.8980
468.000000	97.307	4.6074
475.000000	97.342	4.2417
482.000000	97.374	3.8467
487.000000	97.395	3.5468
494.000000	97.421	3.1023
500.000000	97.441	2.6995
508.000000	97.463	2.1301
515.000000	97.478	1.6035
522.000000	97.487	1.0513
530.000000	97.491	0.3880
538.000000	97.487	-0.3047
545.000000	97.476	-0.9293
552.000000	97.458	-1.5675
560.000000	97.430	-2.3102
570.000000	97.379	-3.2540
580.000000	97.313	-4.2052
590.000000	97.231	-5.1487
600.000000	97.132	-6.0736
608.000000	97.041	-6.7929
615.000000	96.953	-7.4000
622.000000	96.858	-7.9814
630.000000	96.740	-8.6101
640.000000	96.578	-9.3370
650.000000	96.404	-9.9899
660.000000	96.218	-10.5601
670.000000	96.022	-11.0413
680.000000	95.818	-11.4247
690.000000	95.607	-11.7110
700.000000	95.392	-11.8980
710.000000	95.173	-11.9855
720.000000	94.952	-11.9762
730.000000	94.732	-11.8717
740.000000	94.511	-11.6731
750.000000	94.292	-11.3847
762.000000	94.034	-10.9273
775.000000	93.761	-10.2995
788.000000	93.496	-9.5426
800.000000	93.260	-8.7390
812.000000	93.034	-7.8483
825.000000	92.800	-6.7958
838.000000	92.578	-5.6627
850.000000	92.386	-4.5574
862.000000	92.206	-3.4032
875.000000	92.023	-2.1055
885.000000	91.892	-1.0798
900.000000	91.711	0.4927
912.000000	91.578	1.7747
925.000000	91.446	3.1793
938.000000	91.327	4.5904
950.000000	91.226	5.8916
962.000000	91.135	7.1891
975.000000	91.047	8.5873
988.000000	90.968	9.9713
1000.000000	90.905	11.2344
1015.000000	90.838	12.7941
1030.000000	90.781	14.3241
1044.000000	90.737	15.7236
1060.000000	90.696	17.2906
1075.000000	90.664	18.7268
1090.000000	90.637	20.1295
1106.000000	90.615	21.5882
1120.000000	90.599	22.8344
1138.000000	90.584	24.3951
1150.000000	90.576	25.4100
1172.000000	90.566	27.2246
1180.000000	90.564	27.8705
1206.000000	90.559	29.9207
1220.000000	90.558	30.9994
1241.000000	90.558	32.5881
1250.000000	90.558	33.2585
1265.000000	90.559	34.3640
1280.000000	90.560	35.4576
1315.000000	90.564	37.9720
1320.000000	90.565	38.3291
1340.000000	90.569	39.7563
1360.000000	90.574	41.1798
1380.000000	90.582	42.5995
1400.000000	90.592	44.0141
1430.000000	90.613	46.1236
1450.000000	90.631	47.5221
1475.000000	90.658	49.2591
1500.000000	90.690	50.9828
1525.000000	90.726	52.6945
1550.000000	90.768	54.3928
1575.000000	90.815	56.0756
1600.000000	90.866	57.7384
1625.000000	90.922	59.3847
1650.000000	90.983	61.0130
1675.000000	91.048	62.6185
1700.000000	91.120	64.1947
1725.000000	91.196	65.7420
1750.000000	91.275	67.2643
1775.000000	91.359	68.7694
1800.000000	91.447	70.2584
1825.000000	91.542	71.7290
1850.000000	91.643	73.1759
1875.000000	91.751	74.5929
1900.000000	91.866	75.9736
1925.000000	91.986	77.3100
1950.000000	92.112	78.5991
1975.000000	92.242	79.8417
2000.000000	92.375	81.0394
2030.000000	92.540	82.4197
2060.000000	92.710	83.7433
2090.000000	92.884	85.0203
2120.000000	93.065	86.2623
2140.000000	93.191	87.0776
2180.000000	93.465	88.6816
2200.000000	93.618	89.4506
2240.000000	93.965	90.7888
2270.000000	94.252	91.4786
2300.000000	94.543	91.8246
2330.000000	94.817	91.8625
2360.000000	95.067	91.6758
2400.000000	95.365	91.1937
2430.000000	95.565	90.6955
2470.000000	95.802	89.8616
2500.000000	95.958	89.1134
2540.000000	96.133	87.9678
2580.000000	96.266	86.6855
2620.000000	96.354	85.3201
2650.000000	96.389	84.2814
2690.000000	96.399	82.9276
2720.000000	96.381	81.9677
2760.000000	96.330	80.7991
2800.000000	96.259	79.7738
2850.000000	96.155	78.6564
2900.000000	96.042	77.6323
2950.000000	95.917	76.6463
3000.000000	95.777	75.7033
3040.000000	95.656	74.9942
3070.000000	95.562	74.4938
3110.000000	95.433	73.8672
3150.000000	95.301	73.2804
3200.000000	95.133	72.5889
3250.000000	94.971	71.9232
3300.000000	94.821	71.2565
3350.000000	94.688	70.5549
3400.000000	94.576	69.7829
3450.000000	94.487	68.9042
3500.000000	94.421	67.8787
3550.000000	94.381	66.6673
3600.000000	94.365	65.2326
3650.000000	94.373	63.5351
3700.000000	94.401	61.5415
3750.000000	94.445	59.2271
3820.000000	94.528	55.4205
3870.000000	94.593	52.2878
3950.000000	94.682	46.5969
4000.000000	94.713	42.7218
4060.000000	94.720	37.9590
4120.000000	94.707	33.2587
4180.000000	94.698	28.6804
4250.000000	94.708	23.4328
4310.000000	94.728	18.9700
4370.000000	94.747	14.5614
4440.000000	94.753	9.6046
4500.000000	94.742	5.6613
4550.000000	94.729	2.6755
4620.000000	94.721	-0.9988
4680.000000	94.739	-3.7140
4750.000000	94.801	-6.4714
4820.000000	94.904	-8.8986
4870.000000	94.999	-10.4790
4940.000000	95.153	-12.5202
5000.000000	95.298	-14.1357
5080.000000	95.496	-16.1225
5150.000000	95.667	-17.7087
5220.000000	95.828	-19.1398
5300.000000	95.996	-20.5555
5380.000000	96.148	-21.7065
5450.000000	96.268	-22.4818
5520.000000	96.380	-23.0284
5600.000000	96.505	-23.3664
5700.000000	96.677	-23.4441
5800.000000	96.868	-23.3701
5900.000000	97.046	-23.2698
6000.000000	97.189	-23.0257
6080.000000	97.280	-22.6278
6150.000000	97.349	-22.0990
6220.000000	97.413	-21.3915
6300.000000	97.488	-20.3610
6400.000000	97.598	-18.7438
6500.000000	97.736	-16.7807
6600.000000	97.917	-14.5292
6700.000000	98.153	-12.1146
6800.000000	98.446	-9.6801
6900.000000	98.792	-7.3177
7000.000000	99.192	-5.1074
7100.000000	99.644	-3.1421
7200.000000	100.145	-1.5269
7300.000000	100.688	-0.3825
7400.000000	101.260	0.1690
7500.000000	101.844	0.0032
7620.000000	102.521	-1.3081
7750.000000	103.152	-4.2267
7880.000000	103.575	-8.5711
8000.000000	103.699	-13.3934
8120.000000	103.528	-18.3204
8250.000000	103.045	-22.9789
8380.000000	102.338	-26.3742
8500.000000	101.567	-28.2366
8620.000000	100.744	-28.9504
8750.000000	99.839	-28.5899
8850.000000	99.154	-27.6215
9000.000000	98.168	-25.2250
9120.000000	97.431	-22.6293
9250.000000	96.694	-19.2718
9380.000000	96.029	-15.4696
9500.000000	95.484	-11.6629
9620.000000	95.004	-7.6503
9750.000000	94.559	-3.1394
9880.000000	94.193	1.4885
10000.000000	93.932	5.8228
10150.000000	93.722	11.2602
10300.000000	93.652	16.6072
10440.000000	93.723	21.3366
10600.000000	93.975	26.1230
10750.000000	94.368	29.6923
10900.000000	94.902	31.9972
11060.000000	95.577	32.4802
11200.000000	96.168	30.7805
11380.000000	96.758	25.3343
11500.000000	96.919	19.7076
11720.000000	96.420	7.3954
11800.000000	95.964	3.2867
12060.000000	93.794	-5.3361
12200.000000	92.447	-6.8928
12410.000000	90.502	-6.3860
12500.000000	89.735	-5.4622
12650.000000	88.561	-3.2995
12800.000000	87.516	-0.5847
13150.000000	85.523	6.7318
13200.000000	85.283	7.8108
13400.000000	84.424	12.0668
13600.000000	83.724	16.0201
13800.000000	83.166	19.3163
14000.000000	82.701	21.6751
14300.000000	82.047	23.4870
14500.000000	81.596	23.7820
14750.000000	81.004	23.2245
15000.000000	80.339	21.7884
15250.000000	79.595	19.8871
15500.000000	78.806	17.7938
15750.000000	78.022	15.6252
16000.000000	77.298	13.3374
16250.000000	76.690	10.6723
16500.000000	76.271	7.1869
16750.000000	76.094	2.3254
17000.000000	76.173	-4.5137
17250.000000	76.500	-14.0314
17500.000000	77.023	-27.0687
17750.000000	77.606	-44.5034
18000.000000	78.035	-66.8290
18250.000000	78.087	-93.5076
18500.000000	77.653	-123.0218
18750.000000	76.775	-154.0286
19000.000000	75.553	173.8562
19250.000000	74.039	140.6207
19500.000000	72.261	106.9024
19750.000000	70.380	76.0540
